Sensor: mmc5603x Magnetometer Non-wakeup
Vendor: memsic
TimestampMag [ns]; MagX [uT]; MagY [uT]; MagZ [uT]
5251484090809524;53.1432;15.3476;10.8702;
5251484100809524;53.1432;15.3476;10.8702;
5251484112214940;53.1066;15.3232;11.0044;
5251484122214940;52.9480;15.3110;11.2606;
5251484132214940;52.9236;15.2622;11.3826;
5251484142214940;52.8016;15.2500;11.4802;
5251484152214940;52.7528;15.2012;11.6632;
5251484162214940;52.8870;15.2012;11.5290;
5251484172214940;52.8626;15.1646;11.6388;
5251484182214940;52.8870;15.1524;11.7120;
5251484192214940;53.0212;15.1402;11.6022;
5251484202214940;53.2896;15.1646;11.3704;
5251484212214940;53.5946;15.2256;11.0044;
5251484222214940;53.9606;15.2256;10.5896;
5251484232214940;54.3266;15.2988;10.1016;
5251484242214940;54.4486;15.2866;9.9186;
5251484252214940;54.7780;15.3598;9.5404;
5251484262214940;54.9610;15.3720;9.3086;
5251484272214940;54.9610;15.3720;9.2110;
5251484282214940;54.8268;15.3232;9.2720;
5251484292214940;54.6072;15.2622;9.3940;
5251484302214940;54.3998;15.2622;9.6746;
5251484312214940;54.1314;15.2134;9.9430;
5251484322214940;54.0460;15.2134;10.0528;
5251484332214940;53.9606;15.1890;10.1504;
5251484342214940;53.9362;15.1890;10.2114;
5251484352214940;53.9484;15.2256;10.2480;
5251484362214940;53.9850;15.2744;10.2846;
5251484372214940;54.0094;15.2988;10.3700;
5251484382214940;54.0948;15.3232;10.3090;
5251484392214940;54.2290;15.3598;10.1870;
5251484402214940;54.0216;15.3232;10.4554;
5251484412214940;53.8264;15.2866;10.7726;
5251484422214940;53.6800;15.2500;10.8946;
5251484432214940;53.7044;15.2378;10.9556;
5251484442214940;53.6556;15.1768;10.9678;
5251484452214940;53.6312;15.1524;11.0410;
5251484462214940;53.6800;15.0792;11.0654;
5251484472214940;53.6434;15.0304;11.2118;
5251484482214940;53.7776;15.0670;11.1996;
5251484492214940;53.8874;15.0426;11.1020;
5251484502214940;53.9484;15.0670;11.0166;
5251484512214940;53.9240;15.0548;11.1264;
5251484522214940;54.0338;14.9938;11.0166;
5251484532214940;54.2168;14.9572;10.8702;
5251484542214940;54.2412;14.9328;10.8580;
5251484552214940;54.3632;14.8962;10.6872;
5251484562214940;54.3876;14.8108;10.7238;
5251484572214940;54.2778;14.7864;10.7726;
5251484582214940;54.2046;14.6888;11.0044;
5251484592214940;54.2168;14.6278;10.9800;
5251484602214940;54.1558;14.6400;11.1142;
5251484612214940;54.0460;14.6522;11.2606;
5251484622214940;54.0826;14.6522;11.2118;
5251484632214940;53.9972;14.6034;11.3460;
5251484642214940;54.1192;14.6156;11.1020;
5251484652214940;54.3022;14.6034;10.9800;
5251484662214940;54.4608;14.6278;10.8458;
5251484672214940;54.4974;14.6034;10.8214;
5251484682214940;54.6682;14.5790;10.6994;
5251484692214940;54.6926;14.5546;10.6872;
5251484702214940;54.6316;14.5302;10.7848;
5251484712214940;54.6194;14.5302;10.9190;
5251484722214940;54.6072;14.4936;11.0166;
5251484732214940;54.6682;14.4692;10.9068;
5251484742214940;54.7048;14.4082;10.8214;
5251484752214940;54.7536;14.3594;10.8458;
5251484762214940;54.7902;14.3106;10.7848;
5251484772214940;54.9000;14.3350;10.6506;
5251484782214940;54.9976;14.2740;10.6262;
5251484792214940;55.1440;14.2618;10.4310;
5251484802214940;55.0830;14.2374;10.5408;
5251484812214940;54.9610;14.1886;10.7970;
5251484822214940;54.9366;14.1520;10.8336;
5251484832214940;55.0342;14.1764;10.7726;
5251484842214940;54.9976;14.1520;10.8946;
5251484852214940;54.9732;14.0178;11.0532;
5251484862214940;54.8756;13.9934;11.1752;
5251484872214940;54.8390;13.9446;11.3460;
5251484882214940;54.8634;13.8592;11.3704;
5251484892214940;54.9000;13.7738;11.4314;
5251484902214940;54.9000;13.7372;11.6022;
5251484912214940;54.7292;13.6396;11.8218;
5251484922214940;54.6072;13.5664;12.0048;
5251484932214940;54.5828;13.5664;12.1024;
5251484942214940;54.6072;13.4932;12.1024;
5251484952214940;54.5950;13.4444;12.1268;
5251484962214940;54.6804;13.4566;12.0658;
5251484972214940;54.7292;13.4322;11.9926;
5251484982214940;54.8146;13.3956;11.9560;
5251484992214940;54.9122;13.3834;11.9194;
5251485002214940;54.9610;13.3468;11.9560;
5251485012214940;54.8390;13.2858;12.1024;
5251485022214940;54.7658;13.2126;12.2244;
5251485032214940;54.7170;13.1638;12.3830;
5251485042214940;54.4974;13.0784;12.7002;
5251485052214940;54.3510;13.0296;12.9198;
5251485062214940;54.3266;12.9686;12.9808;
5251485072214940;54.3510;12.9076;12.9930;
5251485082214940;54.4120;12.8588;12.9808;
5251485092214940;54.4120;12.7612;12.9930;
5251485102214940;54.4608;12.7734;13.0662;
5251485112214940;54.5218;12.7124;12.9930;
5251485122214940;54.6316;12.6514;12.8222;
5251485132214940;54.7414;12.5904;12.7978;
5251485142214940;54.6194;12.5416;12.8588;
5251485152214940;54.5828;12.5050;12.8832;
5251485162214940;54.5462;12.4196;12.9564;
5251485172214940;54.5340;12.3830;12.9930;
5251485182214940;54.5096;12.2732;13.0540;
5251485192214940;54.4730;12.2244;13.0906;
5251485202214940;54.6926;12.1756;12.8832;
5251485212214940;54.7658;12.1512;12.8466;
5251485222214940;54.7658;12.1634;12.8832;
5251485232214940;54.7048;12.1024;13.0296;
5251485242214940;54.5950;12.1268;13.1150;
5251485252214940;54.5584;12.1268;13.1394;
5251485262214940;54.5584;12.1390;13.1760;
5251485272214940;54.5462;12.1268;13.2126;
5251485282214940;54.4730;12.1634;13.4200;
5251485292214940;54.4486;12.1512;13.4078;
5251485302214940;54.5340;12.0902;13.3102;
5251485312214940;54.6438;12.1024;13.2248;
5251485322214940;54.7658;12.0536;13.0784;
5251485332214940;54.9976;12.0414;12.9564;
5251485342214940;55.0708;11.9804;12.8832;
5251485352214940;55.0952;11.9316;12.8222;
5251485362214940;55.0586;11.8828;12.8344;
5251485372214940;55.0464;11.8340;12.8344;
5251485382214940;55.1318;11.7730;12.8466;
5251485392214940;55.2050;11.6998;12.7490;
5251485402214940;55.2660;11.6632;12.7002;
5251485412214940;55.2294;11.6022;12.7002;
5251485422214940;55.2538;11.6022;12.5904;
5251485432214940;55.4856;11.6022;12.4196;
5251485442214940;55.5832;11.5900;12.2854;
5251485452214940;55.7174;11.5290;12.1512;
5251485462214940;55.8394;11.5412;12.1024;
5251485472214940;55.9004;11.5412;12.0658;
5251485482214940;56.0224;11.5534;11.9560;
5251485492214940;56.2054;11.5168;11.7852;
5251485502214940;56.3518;11.4680;11.6266;
5251485512214940;56.3518;11.4314;11.6510;
5251485522214940;56.4250;11.3704;11.6510;
5251485532214940;56.3640;11.3216;11.7486;
5251485542214940;56.2420;11.2606;11.8828;
5251485552214940;56.1810;11.2118;11.8950;
5251485562214940;55.9858;11.1142;12.1756;
5251485572214940;55.7906;11.0532;12.4074;
5251485582214940;55.7174;11.0532;12.5660;
5251485592214940;55.5954;11.0288;12.6514;
5251485602214940;55.4734;11.0044;12.7856;
5251485612214940;55.4612;10.9800;12.8466;
5251485622214940;55.4734;10.9800;12.7978;
5251485632214940;55.4978;10.9800;12.7246;
5251485642214940;55.6930;10.9800;12.5660;
5251485652214940;55.8882;11.0166;12.2610;
5251485662214940;55.9370;10.9800;12.1756;
5251485672214940;56.0712;10.9190;12.0536;
5251485682214940;56.2420;10.9068;11.8828;
5251485692214940;56.2908;10.8824;11.7486;
5251485702214940;56.4982;10.8336;11.6022;
5251485712214940;56.4982;10.7726;11.6510;
5251485722214940;56.3396;10.7238;11.7120;
5251485732214940;56.2908;10.6628;11.8462;
5251485742214940;56.3030;10.5774;11.8706;
5251485752214940;56.3030;10.6140;11.9804;
5251485762214940;56.3152;10.5652;12.0292;
5251485772214940;56.4128;10.5652;12.0048;
5251485782214940;56.3762;10.5652;12.0292;
5251485792214940;56.3762;10.5652;12.1024;
5251485802214940;56.5714;10.5774;12.0170;
5251485812214940;56.5470;10.5530;12.0902;
5251485822214940;56.5470;10.5774;12.0780;
5251485832214940;56.5348;10.5164;12.0414;
5251485842214940;56.4860;10.5286;12.0902;
5251485852214940;56.4982;10.5164;12.1756;
5251485862214940;56.4250;10.4920;12.2366;
5251485872214940;56.4738;10.4676;12.1268;
5251485882214940;56.5348;10.4310;12.0658;
5251485892214940;56.5592;10.4432;11.9926;
5251485902214940;56.5470;10.3944;12.0414;
5251485912214940;56.4494;10.3700;12.1390;
5251485922214940;56.3640;10.2968;12.1024;
5251485932214940;56.3152;10.2480;12.0536;
5251485942214940;56.1810;10.1992;12.1512;
5251485952214940;56.0224;10.1260;12.3098;
5251485962214940;55.6808;10.0650;12.5904;
5251485972214940;55.3880;10.0162;12.8710;
5251485982214940;55.1684;9.9674;13.1516;
5251485992214940;55.0830;9.9796;13.1882;
5251486002214940;55.0220;9.9918;13.3224;
5251486012214940;55.0220;10.0040;13.3712;
5251486022214940;55.0952;10.0284;13.3102;
5251486032214940;55.1562;10.0894;13.2736;
5251486042214940;55.3270;10.1138;13.0784;
5251486052214940;55.6442;10.1382;12.7856;
5251486062214940;55.9248;10.2114;12.4440;
5251486072214940;56.1688;10.2358;12.2366;
5251486082214940;56.3396;10.2480;12.1634;
5251486092214940;56.4372;10.2602;12.0536;
5251486102214940;56.5592;10.2602;11.8706;
5251486112214940;56.7300;10.2602;11.7486;
5251486122214940;56.6934;10.2968;11.8340;
5251486132214940;56.6202;10.3090;11.9682;
5251486142214940;56.6324;10.2724;11.9804;
5251486152214940;56.6690;10.2602;11.9194;
5251486162214940;56.5836;10.2358;11.9682;
5251486172214940;56.4860;10.1992;12.0048;
5251486182214940;56.2908;10.2236;12.3586;
5251486192214940;56.1078;10.1992;12.5294;
5251486202214940;56.0956;10.1870;12.4562;
5251486212214940;56.0102;10.1992;12.5416;
5251486222214940;55.9248;10.1748;12.5782;
5251486232214940;55.7296;10.1504;12.7856;
5251486242214940;55.7052;10.1504;12.7612;
5251486252214940;55.6198;10.1382;12.8466;
5251486262214940;55.6442;10.1626;12.7856;
5251486272214940;55.6076;10.1504;12.8344;
5251486282214940;55.5588;10.1626;12.9686;
5251486292214940;55.6808;10.1504;12.7856;
5251486302214940;55.7052;10.1992;12.7734;
5251486312214940;55.7540;10.1626;12.7124;
5251486322214940;55.7784;10.1870;12.7002;
5251486332214940;55.8150;10.1870;12.6880;
5251486342214940;55.8638;10.1382;12.5904;
5251486352214940;55.8638;10.1748;12.5782;
5251486362214940;55.8028;10.1138;12.6758;
5251486372214940;55.5466;10.1138;12.9564;
5251486382214940;55.4002;10.1260;13.1882;
5251486392214940;55.2660;10.1260;13.3834;
5251486402214940;55.2294;10.1626;13.4322;
5251486412214940;55.1318;10.1992;13.5054;
5251486422214940;55.0098;10.2358;13.7006;
5251486432214940;54.9976;10.1992;13.7006;
5251486442214940;54.9366;10.2602;13.6396;
5251486452214940;54.9488;10.2846;13.6274;
5251486462214940;54.8512;10.2724;13.6762;
5251486472214940;54.8146;10.3090;13.6640;
5251486482214940;54.8146;10.2968;13.6762;
5251486492214940;54.8512;10.2724;13.6518;
5251486502214940;54.9488;10.2846;13.5176;
5251486512214940;54.9610;10.2968;13.5054;
5251486522214940;55.1440;10.3090;13.3468;
5251486532214940;55.2782;10.3456;13.2126;
5251486542214940;55.3636;10.3334;13.1516;
5251486552214940;55.4368;10.3212;13.0662;
5251486562214940;55.3636;10.3700;13.1638;
5251486572214940;55.3392;10.3578;13.1516;
5251486582214940;55.2782;10.3456;13.2492;
5251486592214940;55.2050;10.3456;13.3102;
5251486602214940;55.1562;10.3212;13.4810;
5251486612214940;55.2660;10.2968;13.3102;
5251486622214940;55.3392;10.3090;13.2126;
5251486632214940;55.4124;10.3578;13.1394;
5251486642214940;55.4368;10.3090;13.0296;
5251486652214940;55.4490;10.3456;13.1272;
5251486662214940;55.5222;10.3578;13.0906;
5251486672214940;55.7052;10.3456;12.8588;
5251486682214940;55.9248;10.3578;12.5416;
5251486692214940;55.9858;10.3822;12.4196;
5251486702214940;56.0346;10.4188;12.3220;
5251486712214940;56.1444;10.3822;12.2610;
5251486722214940;56.2786;10.4066;12.1512;
5251486732214940;56.4372;10.3944;11.9072;
5251486742214940;56.5226;10.4188;11.6754;
5251486752214940;56.5226;10.4310;11.7242;
5251486762214940;56.5470;10.4920;11.6998;
5251486772214940;56.5714;10.5164;11.7120;
5251486782214940;56.6202;10.5042;11.6754;
5251486792214940;56.5714;10.5652;11.5778;
5251486802214940;56.5592;10.5530;11.5168;
5251486812214940;56.4982;10.5530;11.5168;
5251486822214940;56.4250;10.5164;11.6266;
5251486832214940;56.4250;10.5408;11.6998;
5251486842214940;56.2786;10.5164;11.7852;
5251486852214940;56.1688;10.5042;11.9682;
5251486862214940;56.1322;10.4798;12.0658;
5251486872214940;56.0956;10.4432;12.1024;
5251486882214940;56.1200;10.4920;12.1878;
5251486892214940;56.1322;10.5286;12.2610;
5251486902214940;56.1810;10.5652;12.2732;
5251486912214940;56.1932;10.5896;12.1756;
5251486922214940;56.2664;10.5896;12.1756;
5251486932214940;56.3274;10.6018;12.0902;
5251486942214940;56.3884;10.6018;12.0048;
5251486952214940;56.4250;10.6018;11.9316;
5251486962214940;56.4006;10.5652;11.9438;
5251486972214940;56.3518;10.5774;11.9560;
5251486982214940;56.3152;10.6018;11.9438;
5251486992214940;56.3396;10.6018;11.9682;
5251487002214940;56.2054;10.6018;12.1512;
5251487012214940;56.1200;10.5652;12.2732;
5251487022214940;56.0224;10.6140;12.3830;
5251487032214940;55.9126;10.6140;12.5904;
5251487042214940;55.9004;10.6506;12.5904;
5251487052214940;55.9248;10.6872;12.5416;
5251487062214940;55.8638;10.6506;12.6636;
5251487072214940;55.6808;10.6384;12.8222;
5251487082214940;55.7296;10.6506;12.7368;
5251487092214940;55.6930;10.6872;12.7368;
5251487102214940;55.6442;10.6750;12.7246;
5251487112214940;55.6808;10.6994;12.7124;
5251487122214940;55.6686;10.6750;12.7124;
5251487132214940;55.7052;10.6384;12.6392;
5251487142214940;55.7540;10.6384;12.5416;
5251487152214940;55.8882;10.6262;12.4318;
5251487162214940;55.8516;10.6262;12.4074;
5251487172214940;55.9248;10.6018;12.2976;
5251487182214940;56.1078;10.5774;12.2000;
5251487192214940;56.0956;10.5652;12.2000;
5251487202214940;55.9004;10.5530;12.4684;
5251487212214940;55.6808;10.5774;12.7124;
5251487222214940;55.5710;10.5896;12.7734;
5251487232214940;55.6564;10.6140;12.5660;
5251487242214940;55.7174;10.6140;12.3952;
5251487252214940;55.7662;10.6140;12.2244;
5251487262214940;55.6076;10.5774;12.1756;
5251487272214940;55.5710;10.6018;12.1878;
5251487282214940;55.5954;10.6384;12.1512;
5251487292214940;55.5100;10.5896;12.2366;
5251487302214940;55.5100;10.5896;12.3220;
5251487312214940;55.2782;10.6018;12.6026;
5251487322214940;55.0342;10.5896;12.9686;
5251487332214940;54.8390;10.5530;13.2980;
5251487342214940;54.7292;10.6140;13.5054;
5251487352214940;54.6560;10.6140;13.6274;
5251487362214940;54.7780;10.6262;13.5176;
5251487372214940;54.9976;10.6994;13.2980;
5251487382214940;55.0098;10.6628;13.2858;
5251487392214940;55.0708;10.6384;13.2370;
5251487402214940;55.1562;10.6384;13.1882;
5251487412214940;55.0586;10.6384;13.2980;
5251487422214940;55.0342;10.6384;13.3468;
5251487432214940;55.0342;10.6140;13.3590;
5251487442214940;54.8268;10.5774;13.4688;
5251487452214940;54.8024;10.5408;13.5908;
5251487462214940;54.8146;10.5286;13.5908;
5251487472214940;54.7292;10.5042;13.6030;
5251487482214940;54.7658;10.4798;13.5786;
5251487492214940;54.9366;10.5286;13.3468;
5251487502214940;55.1074;10.5164;13.1516;
5251487512214940;55.1196;10.5042;13.2126;
5251487522214940;55.1440;10.5042;13.2858;
5251487532214940;55.0952;10.5042;13.3346;
5251487542214940;54.8512;10.5164;13.6152;
5251487552214940;54.8390;10.5286;13.7372;
5251487562214940;54.8146;10.5408;13.7738;
5251487572214940;54.7292;10.5042;13.9080;
5251487582214940;54.6560;10.5408;14.1520;
5251487592214940;54.6682;10.5408;14.0544;
5251487602214940;54.7170;10.5530;13.9324;
5251487612214940;54.6926;10.5652;13.9202;
5251487622214940;54.9488;10.5530;13.5664;
5251487632214940;55.0342;10.5896;13.5542;
5251487642214940;55.0586;10.5896;13.4200;
5251487652214940;55.1806;10.6140;13.2980;
5251487662214940;55.1806;10.5896;13.2614;
5251487672214940;55.2538;10.5896;13.1882;
5251487682214940;55.4124;10.5896;13.0662;
5251487692214940;55.5710;10.5652;12.8466;
5251487702214940;55.6930;10.5530;12.7124;
5251487712214940;55.7784;10.5286;12.6026;
5251487722214940;55.7052;10.5164;12.6758;
5251487732214940;55.6930;10.5042;12.6392;
5251487742214940;55.7662;10.4798;12.5294;
5251487752214940;55.8272;10.4676;12.4562;
5251487762214940;55.8272;10.4310;12.5050;
5251487772214940;55.7540;10.4188;12.5538;
5251487782214940;55.6930;10.4432;12.7490;
5251487792214940;55.6930;10.4188;12.7246;
5251487802214940;55.7784;10.3944;12.7612;
5251487812214940;55.6686;10.3822;13.0052;
5251487822214940;55.6564;10.4066;12.9076;
5251487832214940;55.6076;10.3700;12.9564;
5251487842214940;55.6198;10.3822;12.9320;
5251487852214940;55.6564;10.3700;12.9442;
5251487862214940;55.7296;10.3578;12.7978;
5251487872214940;55.7418;10.3578;12.6636;
5251487882214940;55.7662;10.3822;12.6514;
5251487892214940;55.9126;10.3456;12.5050;
5251487902214940;55.9858;10.3578;12.5050;
5251487912214940;56.1078;10.3944;12.4074;
5251487922214940;56.2542;10.4432;12.2366;
5251487932214940;56.3030;10.4432;12.1634;
5251487942214940;56.1566;10.4066;12.3586;
5251487952214940;56.0834;10.3944;12.5538;
5251487962214940;56.0224;10.3822;12.6270;
5251487972214940;56.0590;10.3822;12.5172;
5251487982214940;56.0468;10.3334;12.6270;
5251487992214940;55.9858;10.2968;12.7612;
5251488002214940;55.8272;10.2358;12.8954;
5251488012214940;55.7418;10.2358;12.9930;
5251488022214940;55.8272;10.2846;12.8832;
5251488032214940;55.9492;10.2358;12.7856;
5251488042214940;55.9980;10.2480;12.6880;
5251488052214940;55.8516;10.2602;12.8954;
5251488062214940;55.7174;10.3090;12.9930;
5251488072214940;55.6198;10.3090;13.0418;
5251488082214940;55.5710;10.3456;13.1638;
5251488092214940;55.5710;10.3456;13.2248;
5251488102214940;55.4246;10.2968;13.3956;
5251488112214940;55.2294;10.3456;13.6518;
5251488122214940;55.1684;10.3700;13.6640;
5251488132214940;55.2660;10.3944;13.5420;
5251488142214940;55.3880;10.3822;13.3102;
5251488152214940;55.3880;10.3822;13.3102;
5251488162214940;55.5466;10.4066;13.1028;
5251488172214940;55.6076;10.3944;12.8832;
5251488182214940;55.7662;10.3944;12.7612;
5251488192214940;55.9736;10.3822;12.4196;
5251488202214940;56.1322;10.3578;12.2854;
5251488212214940;56.0834;10.3334;12.3708;
5251488222214940;55.9614;10.2968;12.5538;
5251488232214940;55.9492;10.2846;12.6270;
5251488242214940;55.8150;10.2480;12.7002;
5251488252214940;55.6808;10.2358;12.9686;
5251488262214940;55.6076;10.2602;13.0418;
5251488272214940;55.3758;10.2846;13.3102;
5251488282214940;55.2294;10.2968;13.5298;
5251488292214940;55.0708;10.3334;13.6274;
5251488302214940;55.0830;10.3700;13.5786;
5251488312214940;55.0830;10.4066;13.5420;
5251488322214940;55.0220;10.3944;13.6396;
5251488332214940;55.1928;10.4554;13.4688;
5251488342214940;55.2782;10.4676;13.2736;
5251488352214940;55.4978;10.4188;13.0540;
5251488362214940;55.6320;10.4066;12.8222;
5251488372214940;55.9004;10.4554;12.4928;
5251488382214940;55.9736;10.4432;12.5172;
5251488392214940;56.0956;10.4432;12.2610;
5251488402214940;56.1810;10.4798;12.2122;
5251488412214940;56.0834;10.4676;12.2244;
5251488422214940;55.9614;10.4920;12.2854;
5251488432214940;55.9004;10.5286;12.3830;
5251488442214940;55.9248;10.5774;12.4074;
5251488452214940;55.8394;10.5774;12.5782;
5251488462214940;55.7052;10.5896;12.7368;
5251488472214940;55.6320;10.5774;12.9442;
5251488482214940;55.5344;10.6018;13.0540;
5251488492214940;55.5832;10.5896;13.0906;
5251488502214940;55.6442;10.5896;13.0418;
5251488512214940;55.5832;10.5286;13.1394;
5251488522214940;55.4978;10.4676;13.2248;
5251488532214940;55.4856;10.4554;13.2492;
5251488542214940;55.6442;10.4920;13.0418;
5251488552214940;55.6930;10.4798;12.9442;
5251488562214940;55.7174;10.4676;12.9442;
5251488572214940;55.5832;10.4798;13.0052;
5251488582214940;55.5466;10.4798;13.2004;
5251488592214940;55.5954;10.5164;13.1150;
5251488602214940;55.5832;10.5286;13.1028;
5251488612214940;55.5954;10.5042;13.0174;
5251488622214940;55.5100;10.4920;13.0418;
5251488632214940;55.4368;10.5042;13.1272;
5251488642214940;55.4612;10.4920;13.0662;
5251488652214940;55.5588;10.4920;12.9564;
5251488662214940;55.5710;10.4798;12.8710;
5251488672214940;55.4734;10.4920;12.9320;
5251488682214940;55.4124;10.5164;12.9808;
5251488692214940;55.3026;10.5408;13.1028;
5251488702214940;55.2538;10.5042;13.2126;
5251488712214940;55.0342;10.5164;13.4444;
5251488722214940;54.8268;10.5286;13.6152;
5251488732214940;54.6316;10.5042;13.8226;
5251488742214940;54.4242;10.4920;13.9446;
5251488752214940;54.3510;10.4554;14.1154;
5251488762214940;54.2046;10.4310;14.2740;
5251488772214940;54.1070;10.4188;14.3350;
5251488782214940;54.0338;10.4432;14.4204;
5251488792214940;54.1314;10.4310;14.2984;
5251488802214940;54.2412;10.4310;14.2374;
5251488812214940;54.2656;10.4676;14.1886;
5251488822214940;54.3754;10.4920;14.1520;
5251488832214940;54.5584;10.5530;13.8836;
5251488842214940;54.7292;10.6018;13.6640;
5251488852214940;55.0586;10.6018;13.3224;
5251488862214940;55.2172;10.6750;13.1760;
5251488872214940;55.4368;10.6872;12.9442;
5251488882214940;55.5466;10.7238;12.7856;
5251488892214940;55.7662;10.7726;12.6148;
5251488902214940;55.9492;10.8458;12.3830;
5251488912214940;55.9492;10.8824;12.3952;
5251488922214940;56.0224;10.9190;12.2610;
5251488932214940;56.1078;10.9678;12.1634;
5251488942214940;56.0468;10.9190;12.0902;
5251488952214940;55.9736;10.9556;12.1512;
5251488962214940;55.9248;10.9556;12.2122;
5251488972214940;55.7296;10.9556;12.3952;
5251488982214940;55.6076;10.9190;12.5416;
5251488992214940;55.4978;10.8946;12.6148;
5251489002214940;55.2904;10.7970;12.9320;
5251489012214940;54.9122;10.8092;13.3834;
5251489022214940;54.7170;10.8092;13.6518;
5251489032214940;54.5340;10.7482;13.9568;
5251489042214940;54.3754;10.7360;14.0910;
5251489052214940;54.3388;10.7604;14.2252;
5251489062214940;54.3266;10.7970;14.2618;
5251489072214940;54.3388;10.8092;14.2374;
5251489082214940;54.3998;10.8946;14.2008;
5251489092214940;54.4974;10.8946;14.0056;
5251489102214940;54.7048;10.9068;13.7250;
5251489112214940;54.9244;10.9678;13.4566;
5251489122214940;55.0708;10.9922;13.2126;
5251489132214940;55.2416;10.9434;12.9564;
5251489142214940;55.2294;10.8946;12.7734;
5251489152214940;55.2416;10.9068;12.7734;
5251489162214940;55.4246;10.9190;12.6270;
5251489172214940;55.4856;10.9800;12.5782;
5251489182214940;55.5710;11.0410;12.5050;
5251489192214940;55.6320;11.0410;12.3220;
5251489202214940;55.7662;11.0288;12.2244;
5251489212214940;55.7418;11.0532;12.2244;
5251489222214940;55.8394;11.0776;12.1756;
5251489232214940;55.9492;11.1020;12.1390;
5251489242214940;55.8638;11.0654;12.1512;
5251489252214940;55.7418;11.0044;12.2976;
5251489262214940;55.8028;11.0166;12.2976;
5251489272214940;55.8028;11.0410;12.3708;
5251489282214940;55.8760;11.0898;12.3220;
5251489292214940;56.0712;11.1386;12.0780;
5251489302214940;56.1078;11.1508;12.0780;
5251489312214940;56.0590;11.1264;12.1024;
5251489322214940;56.1566;11.1630;11.9316;
5251489332214940;56.3274;11.1752;11.7608;
5251489342214940;56.2054;11.1752;11.8462;
5251489352214940;56.0468;11.1752;11.9072;
5251489362214940;55.8760;11.1752;12.0902;
5251489372214940;55.7174;11.1752;12.1512;
5251489382214940;55.6564;11.1874;12.2488;
5251489392214940;55.6930;11.2240;12.1756;
5251489402214940;55.5222;11.2118;12.3708;
5251489412214940;55.4124;11.2362;12.5050;
5251489422214940;55.3880;11.2484;12.4928;
5251489432214940;55.3636;11.2606;12.5416;
5251489442214940;55.3148;11.2972;12.5904;
5251489452214940;55.3270;11.2972;12.7124;
5251489462214940;55.2172;11.3094;12.9076;
5251489472214940;54.9976;11.2972;13.1150;
5251489482214940;54.8268;11.2972;13.3590;
5251489492214940;54.6804;11.3460;13.4932;
5251489502214940;54.6194;11.3338;13.5664;
5251489512214940;54.6926;11.3338;13.5420;
5251489522214940;54.8268;11.3216;13.3712;
5251489532214940;54.5950;11.3338;13.6884;
5251489542214940;54.5096;11.3582;13.7494;
5251489552214940;54.5462;11.3826;13.7616;
5251489562214940;54.6316;11.3704;13.6762;
5251489572214940;54.7414;11.3826;13.5786;
5251489582214940;54.7658;11.4436;13.5542;
5251489592214940;54.8634;11.4680;13.3712;
5251489602214940;54.8512;11.4558;13.3712;
5251489612214940;55.0830;11.4924;13.0174;
5251489622214940;55.2416;11.5290;12.7612;
5251489632214940;55.2538;11.5778;12.6392;
5251489642214940;55.3758;11.5900;12.4196;
5251489652214940;55.4978;11.6144;12.2976;
5251489662214940;55.5344;11.6388;12.1268;
5251489672214940;55.4124;11.6876;12.2732;
5251489682214940;55.3636;11.7730;12.2854;
5251489692214940;55.3758;11.7852;12.2000;
5251489702214940;55.3636;11.8340;12.1878;
5251489712214940;55.4734;11.8218;12.0902;
5251489722214940;55.4734;11.8462;12.1268;
5251489732214940;55.3636;11.8340;12.0902;
5251489742214940;55.2904;11.8096;12.1390;
5251489752214940;55.1806;11.7730;12.2000;
5251489762214940;55.2538;11.7364;12.1146;
5251489772214940;55.2538;11.7486;12.0536;
5251489782214940;55.4002;11.7608;11.9194;
5251489792214940;55.4368;11.7974;11.7608;
5251489802214940;55.4856;11.8584;11.6022;
5251489812214940;55.4978;11.9072;11.6144;
5251489822214940;55.4856;11.9438;11.6632;
5251489832214940;55.5710;12.0170;11.6266;
5251489842214940;55.5832;12.0902;11.5412;
5251489852214940;55.7052;12.1390;11.4436;
5251489862214940;55.6442;12.1756;11.4680;
5251489872214940;55.5954;12.1756;11.5534;
5251489882214940;55.6564;12.2122;11.5168;
5251489892214940;55.7052;12.1878;11.4070;
5251489902214940;55.8760;12.2488;11.2484;
5251489912214940;56.1078;12.2610;10.9434;
5251489922214940;56.0224;12.2732;11.0166;
5251489932214940;56.0590;12.2732;11.0532;
5251489942214940;56.1566;12.2366;10.8336;
5251489952214940;56.3152;12.2610;10.6262;
5251489962214940;56.3030;12.2610;10.6384;
5251489972214940;56.3640;12.3464;10.5530;
5251489982214940;56.3884;12.3586;10.5164;
5251489992214940;56.2786;12.3708;10.5408;
5251490002214940;56.4372;12.4074;10.3822;
5251490012214940;56.3396;12.4196;10.4310;
5251490022214940;56.3152;12.4928;10.4798;
5251490032214940;56.2420;12.5660;10.6140;
5251490042214940;56.2054;12.5904;10.6140;
5251490052214940;56.1566;12.6026;10.6994;
5251490062214940;55.9736;12.6148;10.9434;
5251490072214940;55.8150;12.6392;11.1508;
5251490082214940;55.6686;12.6148;11.3460;
5251490092214940;55.5100;12.6758;11.5534;
5251490102214940;55.2904;12.7124;11.8096;
5251490112214940;55.1318;12.7124;12.0048;
5251490122214940;54.8634;12.7368;12.2366;
5251490132214940;54.6072;12.7246;12.5782;
5251490142214940;54.5584;12.7246;12.5294;
5251490152214940;54.5218;12.7490;12.5782;
5251490162214940;54.3998;12.7612;12.7612;
5251490172214940;54.3388;12.7246;12.7734;
5251490182214940;54.3754;12.7124;12.6880;
5251490192214940;54.3388;12.7368;12.6880;
5251490202214940;54.3266;12.7612;12.7734;
5251490212214940;54.3266;12.7734;12.7246;
5251490222214940;54.2290;12.7978;12.8344;
5251490232214940;54.1314;12.7978;12.9198;
5251490242214940;54.0704;12.7978;12.9564;
5251490252214940;54.0704;12.8100;12.8954;
5251490262214940;54.0582;12.8344;12.9320;
5251490272214940;54.0826;12.7612;12.9076;
5251490282214940;54.2168;12.7856;12.7856;
5251490292214940;54.2900;12.7978;12.7734;
5251490302214940;54.3632;12.8222;12.7124;
5251490312214940;54.4120;12.8344;12.7368;
5251490322214940;54.4730;12.8588;12.6758;
5251490332214940;54.4486;12.8710;12.7368;
5251490342214940;54.4852;12.8466;12.7612;
5251490352214940;54.5706;12.8954;12.6758;
5251490362214940;54.6072;12.9076;12.6392;
5251490372214940;54.7292;12.9320;12.4684;
5251490382214940;54.8878;12.9320;12.2854;
5251490392214940;55.0342;12.9076;12.0658;
5251490402214940;55.1074;12.9076;11.9560;
5251490412214940;55.2660;12.8954;11.7608;
5251490422214940;55.1928;12.8954;11.8462;
5251490432214940;55.1318;12.8588;11.9194;
5251490442214940;55.0830;12.8100;11.9560;
5251490452214940;54.9854;12.7734;12.0536;
5251490462214940;54.9854;12.7490;12.1146;
5251490472214940;55.0830;12.7490;11.9804;
5251490482214940;55.1318;12.7002;11.9804;
5251490492214940;55.0952;12.6758;12.0780;
5251490502214940;55.2416;12.6880;11.9438;
5251490512214940;55.3270;12.6758;11.8340;
5251490522214940;55.3758;12.6880;11.7730;
5251490532214940;55.4002;12.6758;11.8218;
5251490542214940;55.2294;12.6636;11.9804;
5251490552214940;54.9366;12.6270;12.4928;
5251490562214940;54.8512;12.6270;12.6636;
5251490572214940;54.6682;12.5904;12.8832;
5251490582214940;54.4608;12.5538;13.1760;
5251490592214940;54.2412;12.5172;13.3712;
5251490602214940;54.2046;12.4440;13.5176;
5251490612214940;54.1924;12.4318;13.5298;
5251490622214940;54.2046;12.3586;13.5054;
5251490632214940;54.3632;12.3342;13.2614;
5251490642214940;54.3266;12.3098;13.1760;
5251490652214940;54.5096;12.3098;13.0906;
5251490662214940;54.5950;12.2488;13.0418;
5251490672214940;54.7414;12.2244;12.9198;
5251490682214940;54.8512;12.2244;12.8344;
5251490692214940;54.9854;12.1634;12.6026;
5251490702214940;55.1440;12.1512;12.3342;
5251490712214940;55.3270;12.1146;12.0902;
5251490722214940;55.5222;12.0536;11.8096;
5251490732214940;55.6198;12.0170;11.6144;
5251490742214940;55.7174;11.9926;11.3338;
5251490752214940;55.7418;11.9072;11.3216;
5251490762214940;55.7906;11.8462;11.1630;
5251490772214940;55.7784;11.8096;11.1874;
5251490782214940;55.8150;11.7730;11.3338;
5251490792214940;55.6198;11.7242;11.5778;
5251490802214940;55.5100;11.6876;11.8706;
5251490812214940;55.3880;11.6388;12.0658;
5251490822214940;55.3636;11.5656;12.1878;
5251490832214940;55.3636;11.5534;12.3220;
5251490842214940;55.2172;11.5046;12.5782;
5251490852214940;55.1806;11.4436;12.7612;
5251490862214940;55.0952;11.3338;12.8954;
5251490872214940;55.1684;11.2728;12.8588;
5251490882214940;55.1562;11.2484;12.9198;
5251490892214940;55.1196;11.1508;13.0662;
5251490902214940;55.0220;11.1020;13.2492;
5251490912214940;55.1440;11.0776;13.2004;
5251490922214940;55.2050;11.0166;13.1882;
5251490932214940;55.1928;10.9922;13.2736;
5251490942214940;55.1440;10.9312;13.3468;
5251490952214940;55.0464;10.8580;13.4688;
5251490962214940;54.9366;10.7482;13.6640;
5251490972214940;54.8512;10.6750;13.7006;
5251490982214940;54.9610;10.6262;13.6152;
5251490992214940;55.0220;10.5530;13.5054;
5251491002214940;55.1684;10.5286;13.2980;
5251491012214940;55.3270;10.4798;13.1150;
5251491022214940;55.5344;10.4676;12.8588;
5251491032214940;55.7418;10.4554;12.7490;
5251491042214940;55.9858;10.4676;12.4196;
5251491052214940;56.2176;10.4798;12.2122;
5251491062214940;56.4372;10.4676;12.0414;
5251491072214940;56.4128;10.4310;12.0414;
5251491082214940;56.3396;10.4066;12.2366;
5251491092214940;56.2786;10.3822;12.3342;
5251491102214940;56.2542;10.3578;12.4074;
5251491112214940;56.2176;10.3090;12.4074;
5251491122214940;56.2420;10.2846;12.4318;
5251491132214940;56.2786;10.2602;12.4196;
5251491142214940;56.2176;10.2358;12.4440;
5251491152214940;56.2054;10.2114;12.5050;
5251491162214940;56.2420;10.1260;12.4318;
5251491172214940;56.2420;10.0528;12.4562;
5251491182214940;56.2908;10.0528;12.4562;
5251491192214940;56.3396;10.0650;12.4196;
5251491202214940;56.4006;9.9918;12.3830;
5251491212214940;56.4006;9.9674;12.3586;
5251491222214940;56.2786;9.9186;12.4440;
5251491232214940;56.3396;9.9308;12.3952;
5251491242214940;56.3884;9.9674;12.3342;
5251491252214940;56.6080;9.9918;12.0292;
5251491262214940;56.7300;10.0162;11.8462;
5251491272214940;56.8764;10.0528;11.6876;
5251491282214940;56.8764;10.1138;11.6510;
5251491292214940;56.9374;10.1016;11.6022;
5251491302214940;57.0106;10.1138;11.6144;
5251491312214940;57.0228;10.0894;11.6388;
5251491322214940;56.9862;10.0284;11.7120;
5251491332214940;56.7788;10.0406;12.0048;
5251491342214940;56.6690;9.9796;12.1756;
5251491352214940;56.4250;9.9552;12.4562;
5251491362214940;56.2664;9.9186;12.7002;
5251491372214940;56.0956;9.9674;12.9442;
5251491382214940;55.9614;9.9796;13.1638;
5251491392214940;55.7052;10.0406;13.4444;
5251491402214940;55.5710;10.0650;13.6396;
5251491412214940;55.3636;10.0528;13.8592;
5251491422214940;55.1928;10.0772;13.9812;
5251491432214940;55.1928;10.0650;14.0544;
5251491442214940;55.2050;10.1016;13.9446;
5251491452214940;55.2294;10.0650;13.8592;
5251491462214940;55.3148;10.0650;13.7006;
5251491472214940;55.4246;10.0040;13.5176;
5251491482214940;55.4368;10.0406;13.5542;
5251491492214940;55.5466;10.0284;13.3834;
5251491502214940;55.4978;10.0040;13.3956;
5251491512214940;55.4734;9.9918;13.3834;
5251491522214940;55.3636;9.9674;13.5054;
5251491532214940;55.3636;10.0162;13.5420;
5251491542214940;55.3636;10.0284;13.5298;
5251491552214940;55.5466;10.0772;13.2492;
5251491562214940;55.7906;10.1260;12.8832;
5251491572214940;55.9858;10.1626;12.6270;
5251491582214940;56.2298;10.2480;12.3830;
5251491592214940;56.2908;10.2724;12.2366;
5251491602214940;56.5470;10.3456;12.0170;
5251491612214940;56.7056;10.3822;11.7608;
5251491622214940;56.6934;10.3822;11.6632;
5251491632214940;56.6202;10.4188;11.8218;
5251491642214940;56.4494;10.4432;12.0292;
5251491652214940;56.3030;10.5042;12.2122;
5251491662214940;56.1200;10.4798;12.4562;
5251491672214940;55.9858;10.4676;12.5538;
5251491682214940;55.7784;10.4432;12.7734;
5251491692214940;55.7418;10.4554;12.8832;
5251491702214940;55.8272;10.4798;12.7978;
5251491712214940;55.7418;10.4920;12.8100;
5251491722214940;55.7906;10.4676;12.6758;
5251491732214940;55.7662;10.4432;12.6636;
5251491742214940;55.8028;10.4432;12.5416;
5251491752214940;55.8760;10.4676;12.3830;
5251491762214940;55.9370;10.4920;12.2488;
5251491772214940;55.7662;10.4676;12.3220;
5251491782214940;55.6198;10.4798;12.4806;
5251491792214940;55.4856;10.4432;12.6514;
5251491802214940;55.2904;10.4676;12.8954;
5251491812214940;55.2660;10.4798;13.0052;
5251491822214940;55.1806;10.4920;13.1394;
5251491832214940;55.1440;10.4920;13.2858;
5251491842214940;55.0586;10.4310;13.4444;
5251491852214940;55.0952;10.4310;13.4566;
5251491862214940;55.1318;10.3578;13.5420;
5251491872214940;55.2294;10.3334;13.4932;
5251491882214940;55.3880;10.2846;13.3102;
5251491892214940;55.4612;10.2236;13.2492;
5251491902214940;55.5710;10.1382;13.2736;
5251491912214940;55.6320;10.0772;13.3224;
5251491922214940;55.6808;10.0528;13.3102;
5251491932214940;55.8028;9.9918;13.1882;
5251491942214940;55.8516;9.9796;13.0296;
5251491952214940;55.9248;9.9552;12.8954;
5251491962214940;56.0346;9.8942;12.9198;
5251491972214940;56.1688;9.8088;12.7734;
5251491982214940;56.3274;9.7966;12.5538;
5251491992214940;56.4372;9.7844;12.3708;
5251492002214940;56.6568;9.7234;12.1634;
5251492012214940;56.7300;9.6990;12.0780;
5251492022214940;56.8764;9.6380;12.0414;
5251492032214940;57.0838;9.6136;11.8584;
5251492042214940;57.2302;9.5648;11.6266;
5251492052214940;57.3644;9.6014;11.4924;
5251492062214940;57.4376;9.5526;11.3582;
5251492072214940;57.5108;9.4672;11.2972;
5251492082214940;57.4254;9.4550;11.3338;
5251492092214940;57.3888;9.3452;11.4070;
5251492102214940;57.3888;9.2598;11.4314;
5251492112214940;57.3156;9.1256;11.5046;
5251492122214940;57.2180;9.0524;11.5900;
5251492132214940;56.9496;8.9060;11.9438;
5251492142214940;56.6446;8.7840;12.3708;
5251492152214940;56.4372;8.7108;12.6880;
5251492162214940;56.3640;8.6376;12.9442;
5251492172214940;56.2908;8.6132;13.0418;
5251492182214940;56.1810;8.5766;13.2126;
5251492192214940;56.0956;8.5522;13.2980;
5251492202214940;55.9980;8.4790;13.5176;
5251492212214940;56.0834;8.4302;13.4444;
5251492222214940;56.1932;8.3814;13.3468;
5251492232214940;56.4250;8.3692;13.0052;
5251492242214940;56.5104;8.2960;12.7002;
5251492252214940;56.6568;8.2106;12.6514;
5251492262214940;56.8032;8.1496;12.5294;
5251492272214940;56.9496;8.1008;12.4684;
5251492282214940;57.1204;8.0642;12.4196;
5251492292214940;57.1448;8.0764;12.3464;
5251492302214940;57.2424;8.0154;12.2000;
5251492312214940;57.2302;7.9178;12.3586;
5251492322214940;57.2668;7.8812;12.4318;
5251492332214940;57.2302;7.8568;12.5538;
5251492342214940;57.2058;7.7836;12.5172;
5251492352214940;57.0838;7.6982;12.5782;
5251492362214940;57.0472;7.6494;12.5904;
5251492372214940;57.1204;7.5640;12.5538;
5251492382214940;57.1326;7.5762;12.6636;
5251492392214940;57.1082;7.5518;12.7368;
5251492402214940;57.0960;7.5274;12.7856;
5251492412214940;57.0716;7.5396;12.7734;
5251492422214940;57.0472;7.5518;12.8222;
5251492432214940;56.9130;7.6250;13.1028;
5251492442214940;56.8520;7.6372;13.1760;
5251492452214940;56.7300;7.6860;13.4078;
5251492462214940;56.6080;7.6494;13.5664;
5251492472214940;56.4982;7.6738;13.5908;
5251492482214940;56.6080;7.6982;13.5664;
5251492492214940;56.5836;7.6494;13.6274;
5251492502214940;56.5470;7.6494;13.7006;
5251492512214940;56.6202;7.6494;13.6152;
5251492522214940;56.6202;7.6128;13.5542;
5251492532214940;56.7300;7.6006;13.3712;
5251492542214940;56.7788;7.6250;13.2980;
5251492552214940;56.8398;7.6128;13.2614;
5251492562214940;56.6812;7.6128;13.4688;
5251492572214940;56.7422;7.6128;13.3102;
5251492582214940;56.7422;7.5640;13.3468;
5251492592214940;56.7544;7.4908;13.3712;
5251492602214940;56.8032;7.4908;13.3712;
5251492612214940;56.7910;7.4786;13.4444;
5251492622214940;56.7544;7.4542;13.4444;
5251492632214940;56.7544;7.4054;13.4078;
5251492642214940;56.7422;7.3688;13.2980;
5251492652214940;56.6568;7.3200;13.4200;
5251492662214940;56.7788;7.2956;13.3468;
5251492672214940;56.9252;7.2712;13.2126;
5251492682214940;56.9252;7.2468;13.2980;
5251492692214940;56.9008;7.1736;13.3468;
5251492702214940;56.8764;7.0882;13.4810;
5251492712214940;56.8032;7.0516;13.6274;
5251492722214940;56.8764;6.9540;13.6518;
5251492732214940;56.8520;6.8930;13.7860;
5251492742214940;56.6934;6.8442;13.9324;
5251492752214940;56.6202;6.8076;14.0300;
5251492762214940;56.6080;6.7710;14.0300;
5251492772214940;56.4738;6.6978;14.2008;
5251492782214940;56.5592;6.6978;14.0788;
5251492792214940;56.6690;6.6368;13.9812;
5251492802214940;56.6934;6.5758;13.9324;
5251492812214940;56.6446;6.5514;13.9812;
5251492822214940;56.7422;6.4782;13.8958;
5251492832214940;56.7788;6.4050;13.8836;
5251492842214940;56.7422;6.3318;13.9080;
5251492852214940;56.9130;6.2830;13.7860;
5251492862214940;56.8642;6.1732;13.8958;
5251492872214940;56.7544;6.1488;14.0910;
5251492882214940;56.7300;6.0756;14.2374;
5251492892214940;56.8642;6.0390;14.1276;
5251492902214940;56.8154;5.9902;14.3350;
5251492912214940;56.7910;5.9536;14.4570;
5251492922214940;56.8032;5.8682;14.5302;
5251492932214940;56.8276;5.8194;14.6034;
5251492942214940;56.9130;5.7950;14.4814;
5251492952214940;57.1448;5.6852;14.3106;
5251492962214940;57.1814;5.6486;14.3228;
5251492972214940;57.2668;5.5388;14.2618;
5251492982214940;57.4132;5.4534;14.1154;
5251492992214940;57.3766;5.4046;14.1154;
5251493002214940;57.3766;5.3558;14.2496;
5251493012214940;57.1936;5.3070;14.4570;
5251493022214940;57.0716;5.2216;14.7010;
5251493032214940;56.8276;5.2094;15.0304;
5251493042214940;56.8764;5.1972;14.9816;
5251493052214940;56.8032;5.1972;15.0914;
5251493062214940;56.6446;5.1972;15.2988;
5251493072214940;56.6324;5.1484;15.3598;
5251493082214940;56.6446;5.1362;15.3842;
5251493092214940;56.9374;5.1362;15.0426;
5251493102214940;57.1692;5.1240;14.7986;
5251493112214940;57.3522;5.1240;14.5424;
5251493122214940;57.2424;5.0630;14.6644;
5251493132214940;57.2058;5.0264;14.7742;
5251493142214940;57.2302;4.9898;14.6766;
5251493152214940;57.2546;4.9654;14.6522;
5251493162214940;57.2912;4.9288;14.5790;
5251493172214940;57.1814;4.9532;14.7010;
5251493182214940;57.2424;4.9532;14.6766;
5251493192214940;57.3522;4.9288;14.5790;
5251493202214940;57.4376;4.8922;14.5424;
5251493212214940;57.5108;4.8922;14.4936;
5251493222214940;57.6206;4.8556;14.4082;
5251493232214940;57.6084;4.8190;14.5668;
5251493242214940;57.4620;4.7580;14.7986;
5251493252214940;57.3888;4.6970;14.9206;
5251493262214940;57.3034;4.6604;15.0304;
5251493272214940;57.1814;4.6238;15.2012;
5251493282214940;57.2180;4.6482;15.2134;
5251493292214940;57.1936;4.6360;15.2012;
5251493302214940;57.0960;4.6726;15.2988;
5251493312214940;57.0350;4.7092;15.2500;
5251493322214940;57.0960;4.7336;15.1524;
5251493332214940;56.9740;4.7092;15.2866;
5251493342214940;56.7666;4.6970;15.5794;
5251493352214940;56.6568;4.6970;15.6648;
5251493362214940;56.5470;4.7214;15.8722;
5251493372214940;56.4006;4.7336;16.0430;
5251493382214940;56.3274;4.7214;16.2138;
5251493392214940;56.4006;4.7824;16.1650;
5251493402214940;56.4372;4.8434;16.1162;
5251493412214940;56.5592;4.9166;16.0552;
5251493422214940;56.6324;4.9166;15.9576;
5251493432214940;56.5592;4.9044;16.0796;
5251493442214940;56.4616;4.9044;16.1406;
5251493452214940;56.4860;4.9288;16.1284;
5251493462214940;56.5714;4.9654;16.0308;
5251493472214940;56.6446;4.9410;15.9698;
5251493482214940;56.9130;4.9532;15.8112;
5251493492214940;57.0350;4.9898;15.6038;
5251493502214940;57.1448;5.0386;15.4574;
5251493512214940;57.3888;5.1484;15.1524;
5251493522214940;57.5230;5.1606;15.0304;
5251493532214940;57.6084;5.1728;14.9572;
5251493542214940;57.6084;5.1728;14.9328;
5251493552214940;57.5474;5.2094;14.9206;
5251493562214940;57.3034;5.1972;15.0548;
5251493572214940;57.4010;5.1606;14.9206;
5251493582214940;57.4864;5.1728;14.8230;
5251493592214940;57.5474;5.1240;14.6888;
5251493602214940;57.7060;5.0996;14.3838;
5251493612214940;57.8158;5.0630;14.2740;
5251493622214940;57.9256;5.0630;14.1032;
5251493632214940;58.0842;5.0142;13.9690;
5251493642214940;58.2184;5.0264;13.8348;
5251493652214940;58.0720;5.0142;14.0910;
5251493662214940;57.9622;4.9776;14.1886;
5251493672214940;57.9622;4.9898;14.2252;
5251493682214940;58.0232;4.9898;14.2984;
5251493692214940;57.9500;4.9776;14.3594;
5251493702214940;57.9622;4.9044;14.4204;
5251493712214940;57.9378;4.9044;14.5546;
5251493722214940;57.9866;4.8190;14.4936;
5251493732214940;58.0598;4.7946;14.3838;
5251493742214940;57.9622;4.7702;14.5058;
5251493752214940;57.8036;4.7336;14.7010;
5251493762214940;57.4742;4.7092;15.0792;
5251493772214940;57.3522;4.7092;15.1646;
5251493782214940;57.1570;4.7214;15.3232;
5251493792214940;56.9740;4.6604;15.2866;
5251493802214940;56.8276;4.6604;15.4574;
5251493812214940;56.6324;4.5994;15.5672;
5251493822214940;56.4494;4.5750;15.7258;
5251493832214940;56.3274;4.5628;15.8966;
5251493842214940;56.3274;4.5384;15.7136;
5251493852214940;56.2908;4.5262;15.7380;
5251493862214940;56.3884;4.5628;15.6160;
5251493872214940;56.4128;4.5872;15.5916;
5251493882214940;56.4128;4.6238;15.5184;
5251493892214940;56.4738;4.7092;15.4208;
5251493902214940;56.7056;4.7580;15.1280;
5251493912214940;56.8520;4.7702;14.8840;
5251493922214940;56.8520;4.8068;14.8108;
5251493932214940;56.8886;4.8556;14.8596;
5251493942214940;56.8520;4.8434;14.8474;
5251493952214940;56.8032;4.8434;14.9328;
5251493962214940;56.7788;4.8068;15.0670;
5251493972214940;56.7056;4.8068;15.1524;
5251493982214940;56.6690;4.7580;15.2134;
5251493992214940;56.6690;4.7824;15.2256;
5251494002214940;56.7422;4.7946;15.1890;
5251494012214940;56.8398;4.8068;15.0304;
5251494022214940;56.8154;4.7946;14.9938;
5251494032214940;56.9130;4.8434;14.8718;
5251494042214940;56.8398;4.8800;14.8718;
5251494052214940;56.8642;4.9044;14.8108;
5251494062214940;56.8520;4.9410;14.6644;
5251494072214940;56.8032;4.9410;14.6034;
5251494082214940;56.7178;4.9166;14.7254;
5251494092214940;56.7422;4.9044;14.6522;
5251494102214940;56.8398;4.9410;14.5668;
5251494112214940;56.7178;4.9654;14.5790;
5251494122214940;56.7300;4.9532;14.3960;
5251494132214940;56.7178;4.9776;14.4448;
5251494142214940;56.6934;4.9410;14.6156;
5251494152214940;56.7422;4.9410;14.6400;
5251494162214940;56.7544;4.9532;14.6400;
5251494172214940;56.5592;4.9166;14.7498;
5251494182214940;56.3762;4.9288;15.0060;
5251494192214940;56.3152;4.9288;15.1036;
5251494202214940;56.2298;4.9410;15.2988;
5251494212214940;56.2420;4.9288;15.2866;
5251494222214940;56.1932;4.9776;15.3232;
5251494232214940;56.1200;5.0020;15.2988;
5251494242214940;56.1322;5.0386;15.1402;
5251494252214940;56.2054;5.1118;15.0182;
5251494262214940;56.3640;5.1362;14.8108;
5251494272214940;56.5104;5.1850;14.6644;
5251494282214940;56.6812;5.2460;14.4204;
5251494292214940;56.7788;5.3070;14.2496;
5251494302214940;56.7788;5.3192;14.0666;
5251494312214940;56.7300;5.3924;14.1398;
5251494322214940;56.7910;5.4656;14.0788;
5251494332214940;56.8154;5.5022;14.0178;
5251494342214940;56.7422;5.5266;13.9690;
5251494352214940;56.7300;5.5266;13.8836;
5251494362214940;56.6202;5.5388;13.9324;
5251494372214940;56.6934;5.5510;13.8226;
5251494382214940;56.7788;5.5876;13.7494;
5251494392214940;56.8276;5.6242;13.6274;
5251494402214940;56.8276;5.6486;13.6396;
5251494412214940;56.8886;5.7218;13.5664;
5251494422214940;56.9862;5.7828;13.5054;
5251494432214940;57.0228;5.8560;13.5298;
5251494442214940;57.1814;5.9414;13.3956;
5251494452214940;57.1692;6.0512;13.4200;
5251494462214940;57.2668;6.1366;13.3346;
5251494472214940;57.2546;6.1976;13.3346;
5251494482214940;57.1570;6.2220;13.4444;
5251494492214940;57.0350;6.2708;13.6030;
5251494502214940;56.8764;6.2830;13.7372;
5251494512214940;56.7788;6.3562;13.8470;
5251494522214940;56.5348;6.3928;13.9934;
5251494532214940;56.3884;6.3562;14.1276;
5251494542214940;56.2176;6.3806;14.2374;
5251494552214940;56.2664;6.4416;14.2252;
5251494562214940;56.4006;6.5392;14.0300;
5251494572214940;56.6080;6.6124;13.7616;
5251494582214940;56.7544;6.7344;13.5176;
5251494592214940;56.8764;6.8198;13.2614;
5251494602214940;57.1936;6.8808;12.9808;
5251494612214940;57.2546;7.0150;12.8100;
5251494622214940;57.3400;7.1004;12.6636;
5251494632214940;57.3034;7.1492;12.6636;
5251494642214940;57.2058;7.2102;12.6392;
5251494652214940;57.0350;7.2712;12.7246;
5251494662214940;56.9740;7.3200;12.8588;
5251494672214940;56.8276;7.3688;12.9320;
5251494682214940;56.6324;7.3932;13.0784;
5251494692214940;56.5592;7.3688;13.0784;
5251494702214940;56.3884;7.3688;13.2126;
5251494712214940;56.3152;7.3932;13.2858;
5251494722214940;56.3884;7.3810;13.3346;
5251494732214940;56.3884;7.3444;13.5176;
5251494742214940;56.1688;7.2712;13.7616;
5251494752214940;56.2298;7.2102;13.8226;
5251494762214940;56.2664;7.1736;13.9080;
5251494772214940;56.2908;7.1614;14.0056;
5251494782214940;56.4128;7.1248;14.0666;
5251494792214940;56.5836;7.0516;13.9446;
5251494802214940;56.6202;6.9662;13.9080;
5251494812214940;56.6568;6.8808;13.8714;
5251494822214940;56.7666;6.7954;13.8470;
5251494832214940;56.6690;6.6856;14.0910;
5251494842214940;56.4860;6.6124;14.3838;
5251494852214940;56.3396;6.5148;14.7376;
5251494862214940;56.1688;6.4172;14.9328;
5251494872214940;55.8150;6.3196;15.3964;
5251494882214940;55.4734;6.1976;15.9088;
5251494892214940;55.0586;6.1000;16.5798;
5251494902214940;54.8268;6.0268;16.9458;
5251494912214940;54.6072;5.9536;17.2874;
5251494922214940;54.5340;5.8804;17.3972;
5251494932214940;54.4608;5.8682;17.5558;
5251494942214940;54.5462;5.8926;17.5924;
5251494952214940;54.6194;5.8804;17.5680;
5251494962214940;54.6682;5.8682;17.5680;
5251494972214940;54.8268;5.8926;17.2020;
5251494982214940;54.8878;5.9414;17.1410;
5251494992214940;54.9488;6.0146;17.0190;
5251495002214940;54.8512;6.0756;17.0922;
5251495012214940;54.7536;6.1488;17.1410;
5251495022214940;54.5340;6.2098;17.4094;
5251495032214940;54.3632;6.3562;17.6290;
5251495042214940;54.4120;6.5392;17.5070;
5251495052214940;54.4364;6.7222;17.5314;
5251495062214940;54.3632;6.9296;17.4948;
5251495072214940;54.3998;7.1004;17.4460;
5251495082214940;54.3876;7.2834;17.4216;
5251495092214940;54.3022;7.4420;17.4338;
5251495102214940;54.2778;7.6128;17.3118;
5251495112214940;54.2290;7.7836;17.2264;
5251495122214940;53.9728;8.0154;17.4216;
5251495132214940;53.7898;8.2594;17.4948;
5251495142214940;53.6312;8.5034;17.5558;
5251495152214940;53.3628;8.7718;17.7022;
5251495162214940;53.3140;9.0158;17.5558;
5251495172214940;53.3994;9.3208;17.2508;
5251495182214940;53.3384;9.6136;17.1166;
5251495192214940;53.3262;9.8820;16.8116;
5251495202214940;53.3872;10.1138;16.5188;
5251495212214940;53.4360;10.3334;16.1406;
5251495222214940;50.5446;16.4578;16.5432;
5251495232214940;50.7032;16.6652;16.0796;
5251495242214940;50.6788;16.8482;15.8234;
5251495252214940;50.5446;16.9336;15.7502;
5251495262214940;50.5568;17.0556;15.5794;
5251495272214940;50.6056;17.1654;15.4452;
5251495282214940;50.6544;17.2630;15.2378;
5251495292214940;50.6788;17.2996;15.1890;
5251495302214940;50.6544;17.3240;15.1890;
5251495312214940;50.6544;17.3118;15.1646;
5251495322214940;50.7154;17.3728;15.1280;
5251495332214940;50.8618;17.3972;14.9450;
5251495342214940;50.9350;17.3850;14.7376;
5251495352214940;50.9350;17.3118;14.6766;
5251495362214940;50.9228;17.3118;14.7132;
5251495372214940;50.9350;17.3118;14.6400;
5251495382214940;51.0082;17.2874;14.5546;
5251495392214940;51.0326;17.2752;14.4814;
5251495402214940;51.0936;17.2142;14.4692;
5251495412214940;51.1058;17.2386;14.5302;
5251495422214940;51.1546;17.1898;14.5668;
5251495432214940;51.2522;17.2142;14.5546;
5251495442214940;51.3010;17.1776;14.4448;
5251495452214940;51.3376;17.1654;14.4692;
5251495462214940;51.4108;17.2020;14.3228;
5251495472214940;51.4352;17.1776;14.3350;
5251495482214940;51.4352;17.2264;14.3472;
5251495492214940;51.5084;17.2142;14.2496;
5251495502214940;51.5938;17.2508;14.1154;
5251495512214940;51.6670;17.2630;14.0178;
5251495522214940;51.6914;17.2386;13.9568;
5251495532214940;51.7402;17.2508;13.9934;
5251495542214940;51.5450;17.2142;14.1886;
5251495552214940;51.4718;17.2752;14.2984;
5251495562214940;51.4108;17.2630;14.4204;
5251495572214940;51.3010;17.2630;14.4814;
5251495582214940;51.1912;17.2752;14.6644;
5251495592214940;50.9960;17.2264;14.8474;
5251495602214940;50.8984;17.2874;15.0182;
5251495612214940;50.7642;17.3240;15.1036;
5251495622214940;50.7886;17.3728;15.0670;
5251495632214940;50.8130;17.4216;15.0548;
5251495642214940;50.9350;17.4582;14.8352;
5251495652214940;50.9472;17.4704;14.8352;
5251495662214940;50.9838;17.5192;14.7620;
5251495672214940;51.0204;17.5924;14.6888;
5251495682214940;51.0448;17.5924;14.6400;
5251495692214940;50.9838;17.6290;14.6522;
5251495702214940;50.9228;17.6900;14.7010;
5251495712214940;50.8862;17.7144;14.7620;
5251495722214940;50.7154;17.7266;14.8840;
5251495732214940;50.6666;17.7754;14.9206;
5251495742214940;50.4958;17.8120;15.0426;
5251495752214940;50.4470;17.8486;15.0426;
5251495762214940;50.4348;17.9340;15.1036;
5251495772214940;50.4592;17.9706;15.0548;
5251495782214940;50.5812;18.0072;14.7864;
5251495792214940;50.7398;18.0316;14.5058;
5251495802214940;50.8496;18.0682;14.2862;
5251495812214940;50.8496;18.0804;14.2008;
5251495822214940;50.8862;18.1292;14.1764;
5251495832214940;50.8740;18.1902;14.1032;
5251495842214940;50.9106;18.2146;13.9202;
5251495852214940;51.0570;18.2146;13.7494;
5251495862214940;51.0082;18.2512;13.7738;
5251495872214940;50.9350;18.2512;13.8226;
5251495882214940;50.8008;18.2756;14.0666;
5251495892214940;50.7642;18.3122;14.1520;
5251495902214940;50.7276;18.3122;14.1398;
5251495912214940;50.6910;18.3366;14.1642;
5251495922214940;50.6544;18.3244;14.1398;
5251495932214940;50.5690;18.3610;14.1886;
5251495942214940;50.5934;18.3366;14.2374;
5251495952214940;50.5568;18.3610;14.3106;
5251495962214940;50.6544;18.3976;14.1032;
5251495972214940;50.6544;18.4464;14.0666;
5251495982214940;50.7032;18.4586;13.9934;
5251495992214940;50.7032;18.4708;13.9934;
5251496002214940;50.6788;18.5074;14.0788;
5251496012214940;50.6300;18.5440;14.1398;
5251496022214940;50.6422;18.6294;14.1398;
5251496032214940;50.5812;18.6904;14.2496;
5251496042214940;50.5202;18.7026;14.2740;
5251496052214940;50.5812;18.7026;14.2130;
5251496062214940;50.5690;18.7026;14.2374;
5251496072214940;50.6300;18.6904;14.2618;
5251496082214940;50.6910;18.7026;14.2374;
5251496092214940;50.6910;18.6782;14.1764;
5251496102214940;50.7276;18.6294;14.1398;
5251496112214940;50.8252;18.6294;13.9568;
5251496122214940;50.9594;18.6294;13.8104;
5251496132214940;51.0570;18.6172;13.7250;
5251496142214940;51.1302;18.6294;13.6030;
5251496152214940;51.0570;18.6172;13.6396;
5251496162214940;50.9350;18.6172;13.7006;
5251496172214940;50.8618;18.6172;13.8958;
5251496182214940;50.7032;18.6050;14.0544;
5251496192214940;50.5324;18.5928;14.2130;
5251496202214940;50.3982;18.5318;14.4448;
5251496212214940;50.2884;18.5684;14.5912;
5251496222214940;50.2030;18.5684;14.6644;
5251496232214940;50.3128;18.5928;14.5668;
5251496242214940;50.3616;18.5562;14.5180;
5251496252214940;50.5446;18.5440;14.2740;
5251496262214940;50.7032;18.5196;14.1886;
5251496272214940;50.8496;18.5196;14.0300;
5251496282214940;50.9106;18.5318;13.9202;
5251496292214940;50.8496;18.5074;13.9446;
5251496302214940;50.9350;18.5318;13.8226;
5251496312214940;50.9716;18.4830;13.8104;
5251496322214940;50.9960;18.4586;13.7128;
5251496332214940;50.9228;18.4464;13.7982;
5251496342214940;50.7276;18.4220;13.8470;
5251496352214940;50.5690;18.3976;14.0178;
5251496362214940;50.5080;18.3976;14.1154;
5251496372214940;50.5934;18.3488;14.0056;
5251496382214940;50.6788;18.3000;14.0422;
5251496392214940;50.6788;18.3000;14.0422;
5251496402214940;50.7886;18.3244;13.9934;
5251496412214940;50.8374;18.3122;13.9934;
5251496422214940;50.8862;18.2878;14.0300;
5251496432214940;50.8984;18.2146;14.1032;
5251496442214940;50.9960;18.2268;14.0788;
5251496452214940;51.0448;18.2512;14.0178;
5251496462214940;51.0204;18.2512;14.0422;
5251496472214940;51.0570;18.2146;13.9690;
5251496482214940;51.0692;18.1780;14.0422;
5251496492214940;51.1180;18.1292;14.0178;
5251496502214940;51.3376;18.1170;13.7616;
5251496512214940;51.5938;18.1780;13.4810;
5251496522214940;51.6182;18.1292;13.3102;
5251496532214940;51.5816;18.0926;13.4444;
5251496542214940;51.5450;18.0438;13.5420;
5251496552214940;51.5084;18.0560;13.5908;
5251496562214940;51.4474;18.0316;13.7250;
5251496572214940;51.3986;18.0438;13.7250;
5251496582214940;51.3742;18.0926;13.7860;
5251496592214940;51.2766;18.0438;13.9446;
5251496602214940;51.1912;18.0438;14.1276;
5251496612214940;51.1546;18.0072;14.1642;
5251496622214940;51.1912;17.9950;14.0178;
5251496632214940;51.1790;17.9828;14.0422;
5251496642214940;51.1180;17.9828;13.9934;
5251496652214940;51.0936;17.9706;14.0544;
5251496662214940;50.9960;17.9218;14.2130;
5251496672214940;51.0326;17.9462;14.0666;
5251496682214940;51.1546;17.9706;13.9202;
5251496692214940;51.2888;18.0560;13.7616;
5251496702214940;51.3742;18.0682;13.7128;
5251496712214940;51.5206;18.0804;13.5298;
5251496722214940;51.7280;18.0926;13.3346;
5251496732214940;51.8988;18.1048;13.1394;
5251496742214940;52.1428;18.1048;12.8222;
5251496752214940;52.1550;18.0682;12.8466;
5251496762214940;52.0330;18.0438;12.9442;
5251496772214940;51.8988;18.0438;13.0418;
5251496782214940;51.7158;18.0194;13.2858;
5251496792214940;51.5694;18.0194;13.4932;
5251496802214940;51.4474;18.0194;13.6152;
5251496812214940;51.3498;18.0682;13.6640;
5251496822214940;51.1058;18.0926;13.9080;
5251496832214940;51.1058;18.1536;13.9080;
5251496842214940;51.2034;18.1414;13.7982;
5251496852214940;51.3742;18.1170;13.6030;
5251496862214940;51.5694;18.1414;13.4078;
5251496872214940;51.6426;18.1292;13.2370;
5251496882214940;51.6792;18.1536;13.2248;
5251496892214940;51.7158;18.1170;13.2370;
5251496902214940;51.7646;18.1414;13.2492;
5251496912214940;51.7524;18.1414;13.2980;
5251496922214940;51.6548;18.1902;13.4688;
5251496932214940;51.5816;18.2024;13.6640;
5251496942214940;51.5450;18.1902;13.6518;
5251496952214940;51.5816;18.2390;13.7250;
5251496962214940;51.6548;18.2512;13.7128;
5251496972214940;51.6182;18.2390;13.6762;
5251496982214940;51.6670;18.2024;13.6640;
5251496992214940;51.5450;18.1780;13.7494;
5251497002214940;51.5938;18.1414;13.6518;
5251497012214940;51.5816;18.1414;13.6640;
5251497022214940;51.4962;18.1780;13.7494;
5251497032214940;51.4352;18.1658;13.8226;
5251497042214940;51.3132;18.1292;13.8348;
5251497052214940;51.2278;18.1780;13.9934;
5251497062214940;51.1790;18.1658;14.0666;
5251497072214940;51.3254;18.1292;13.9690;
5251497082214940;51.4352;18.1536;13.9812;
5251497092214940;51.3132;18.1536;14.0666;
5251497102214940;51.2888;18.1048;14.1764;
5251497112214940;51.2522;18.0926;14.2618;
5251497122214940;51.2400;18.1414;14.2618;
5251497132214940;51.2766;18.0682;14.3350;
5251497142214940;51.2156;18.1170;14.3106;
5251497152214940;51.0936;18.1170;14.4570;
5251497162214940;50.9472;18.0926;14.6034;
5251497172214940;51.0082;18.0560;14.5424;
5251497182214940;51.0204;18.0804;14.5058;
5251497192214940;51.1424;18.0682;14.3594;
5251497202214940;51.2888;18.0682;14.2374;
5251497212214940;51.4962;18.1048;13.9812;
5251497222214940;51.6670;18.0804;13.7006;
5251497232214940;51.8378;18.1170;13.5054;
5251497242214940;51.9110;18.1170;13.4322;
5251497252214940;52.0452;18.1414;13.2614;
5251497262214940;52.1550;18.1414;13.1882;
5251497272214940;52.1062;18.1780;13.1150;
5251497282214940;52.0452;18.1414;13.3224;
5251497292214940;51.9720;18.0804;13.4688;
5251497302214940;51.8988;18.0804;13.6274;
5251497312214940;51.8866;18.0560;13.6518;
5251497322214940;51.9354;18.0926;13.5298;
5251497332214940;51.9354;18.1048;13.5420;
5251497342214940;51.7524;18.1048;13.7250;
5251497352214940;51.5450;18.0438;13.9812;
5251497362214940;51.3498;18.0438;14.0422;
5251497372214940;51.2400;18.0804;14.0910;
5251497382214940;51.3254;18.0804;13.9812;
5251497392214940;51.3010;18.0804;13.9812;
5251497402214940;51.2766;18.0560;13.9690;
5251497412214940;51.3620;18.0804;13.8226;
5251497422214940;51.5694;18.1170;13.4810;
5251497432214940;51.8256;18.2024;13.2248;
5251497442214940;51.9354;18.2268;13.1272;
5251497452214940;52.0452;18.2512;13.0052;
5251497462214940;52.0086;18.2756;13.1150;
5251497472214940;52.0452;18.3122;13.0906;
5251497482214940;52.1062;18.3732;13.0174;
5251497492214940;52.0940;18.3366;13.0662;
5251497502214940;52.1306;18.3366;13.1638;
5251497512214940;52.0696;18.3244;13.2004;
5251497522214940;52.0574;18.3488;13.1882;
5251497532214940;51.9232;18.3732;13.2858;
5251497542214940;51.8378;18.3732;13.2980;
5251497552214940;51.8866;18.3854;13.1882;
5251497562214940;51.9354;18.3610;13.1394;
5251497572214940;51.9476;18.4098;13.0540;
5251497582214940;51.9598;18.3854;13.0418;
5251497592214940;51.9720;18.3366;13.0418;
5251497602214940;52.2282;18.3244;12.8100;
5251497612214940;52.3258;18.3000;12.7124;
5251497622214940;52.3746;18.2756;12.6270;
5251497632214940;52.4600;18.3000;12.5538;
5251497642214940;52.5088;18.3366;12.4806;
5251497652214940;52.4844;18.3488;12.5416;
5251497662214940;52.4600;18.4098;12.5416;
5251497672214940;52.4966;18.4342;12.4684;
5251497682214940;52.3746;18.4098;12.5538;
5251497692214940;52.4234;18.4220;12.5416;
5251497702214940;52.4478;18.4708;12.5660;
5251497712214940;52.2404;18.4220;12.7978;
5251497722214940;52.0208;18.3976;13.0296;
5251497732214940;52.0086;18.3976;13.0906;
5251497742214940;51.8622;18.3854;13.1394;
5251497752214940;51.8378;18.3732;13.2248;
5251497762214940;51.8378;18.4098;13.2248;
5251497772214940;51.7280;18.4342;13.2370;
5251497782214940;51.6182;18.4464;13.3712;
5251497792214940;51.5450;18.4830;13.3712;
5251497802214940;51.5572;18.4708;13.3224;
5251497812214940;51.3742;18.4098;13.4566;
5251497822214940;51.4718;18.3976;13.3590;
5251497832214940;51.4718;18.4586;13.3346;
5251497842214940;51.4474;18.4098;13.3102;
5251497852214940;51.3010;18.3976;13.5176;
5251497862214940;51.2888;18.3610;13.6152;
5251497872214940;51.3620;18.3732;13.5298;
5251497882214940;51.4230;18.3488;13.5298;
5251497892214940;51.3864;18.3854;13.5298;
5251497902214940;51.2888;18.3732;13.6640;
5251497912214940;51.2522;18.3244;13.7860;
5251497922214940;51.1912;18.3122;13.8958;
5251497932214940;51.3742;18.3000;13.7738;
5251497942214940;51.4474;18.2878;13.5664;
5251497952214940;51.4596;18.2512;13.5786;
5251497962214940;51.4352;18.2634;13.6518;
5251497972214940;51.5206;18.2146;13.6152;
5251497982214940;51.5328;18.1414;13.6274;
5251497992214940;51.5084;18.1170;13.7006;
5251498002214940;51.5084;18.1292;13.6518;
5251498012214940;51.4840;18.0926;13.6640;
5251498022214940;51.4352;18.0316;13.7494;
5251498032214940;51.4718;17.9828;13.7982;
5251498042214940;51.5694;17.9706;13.7372;
5251498052214940;51.4962;17.9584;13.8226;
5251498062214940;51.4596;17.9828;13.8836;
5251498072214940;51.4962;17.9706;13.7006;
5251498082214940;51.5450;17.9462;13.7494;
5251498092214940;51.5694;17.9218;13.7616;
5251498102214940;51.5816;17.9340;13.7616;
5251498112214940;51.5572;17.9584;13.8348;
5251498122214940;51.4840;17.9218;13.8836;
5251498132214940;51.6060;17.9340;13.7372;
5251498142214940;51.8378;17.9950;13.5054;
5251498152214940;51.8744;17.9828;13.5298;
5251498162214940;51.9964;17.9218;13.4444;
5251498172214940;52.0940;17.9096;13.3346;
5251498182214940;52.2648;17.8852;13.1638;
5251498192214940;52.3136;17.8242;13.0418;
5251498202214940;52.3380;17.7998;12.9808;
5251498212214940;52.2648;17.7144;13.1882;
5251498222214940;51.9964;17.6046;13.4566;
5251498232214940;51.9110;17.5680;13.6518;
5251498242214940;51.7524;17.5436;13.7860;
5251498252214940;51.5816;17.5192;13.9202;
5251498262214940;51.3742;17.5558;14.1764;
5251498272214940;51.2766;17.5314;14.3472;
5251498282214940;51.3620;17.5192;14.3106;
5251498292214940;51.4596;17.5314;14.1276;
5251498302214940;51.4596;17.4948;14.1398;
5251498312214940;51.3986;17.4338;14.0788;
5251498322214940;51.3254;17.3728;14.0544;
5251498332214940;51.3986;17.2752;13.8714;
5251498342214940;51.5572;17.1654;13.7128;
5251498352214940;51.6060;17.0800;13.6518;
5251498362214940;51.4230;17.0068;13.7494;
5251498372214940;51.3864;16.9214;13.7738;
5251498382214940;51.5450;16.8604;13.5664;
5251498392214940;51.6060;16.8116;13.6030;
5251498402214940;51.6914;16.8360;13.6518;
5251498412214940;51.7158;16.8360;13.7128;
5251498422214940;51.6914;16.7994;13.7006;
5251498432214940;51.7402;16.7872;13.6274;
5251498442214940;51.8744;16.7750;13.5664;
5251498452214940;52.0086;16.7628;13.5054;
5251498462214940;51.9842;16.7140;13.6396;
5251498472214940;52.0940;16.6652;13.5420;
5251498482214940;52.2160;16.5920;13.4688;
5251498492214940;52.2282;16.5066;13.4688;
5251498502214940;52.1916;16.4090;13.6274;
5251498512214940;52.2404;16.3480;13.6640;
5251498522214940;52.2526;16.2992;13.7494;
5251498532214940;52.1794;16.2260;13.8836;
5251498542214940;52.2770;16.1528;13.7128;
5251498552214940;51.4352;17.5558;13.8470;
5251498562214940;51.4474;17.4826;13.8836;
5251498572214940;51.4596;17.4216;13.8348;
5251498582214940;51.6304;17.3728;13.6762;
5251498592214940;51.6670;17.2874;13.6030;
5251498602214940;51.6182;17.1532;13.6152;
5251498612214940;51.5938;17.0556;13.7250;
5251498622214940;51.4718;16.9702;13.9080;
5251498632214940;51.4840;16.8482;13.9934;
5251498642214940;51.4352;16.7506;14.0178;
5251498652214940;51.3864;16.6286;14.2374;
5251498662214940;51.1912;16.5188;14.5180;
5251498672214940;51.2034;16.4212;14.6034;
5251498682214940;51.3620;16.3724;14.5546;
5251498692214940;51.4352;16.3114;14.3960;
5251498702214940;51.4596;16.2626;14.4326;
5251498712214940;51.3864;16.1650;14.5302;
5251498722214940;51.2522;16.0552;14.8108;
5251498732214940;51.2156;16.0064;14.9450;
5251498742214940;51.2400;15.9210;14.8718;
5251498752214940;51.1180;15.7990;15.0182;
5251498762214940;50.8740;15.6892;15.3720;
5251498772214940;50.7032;15.5794;15.7014;
5251498782214940;50.6056;15.4452;15.8844;
5251498792214940;50.5934;15.3842;15.9454;
5251498802214940;50.7032;15.2744;15.8356;
5251498812214940;50.6422;15.1890;15.8600;
5251498822214940;50.5202;15.1402;16.0552;
5251498832214940;50.4592;15.1280;16.1650;
5251498842214940;50.4958;15.0548;16.1040;
5251498852214940;50.5934;15.0304;15.9820;
5251498862214940;50.6422;15.0426;15.9820;
5251498872214940;50.6666;15.0792;15.8478;
5251498882214940;50.6666;15.0792;15.8600;
5251498892214940;50.8252;15.1036;15.6526;
5251498902214940;50.7642;15.1158;15.6648;
5251498912214940;50.9472;15.1402;15.4696;
5251498922214940;51.0204;15.1890;15.1768;
5251498932214940;51.0448;15.2012;14.9816;
5251498942214940;51.1058;15.2744;14.7986;
5251498952214940;51.0814;15.3232;14.8108;
5251498962214940;51.0326;15.4330;14.7132;
5251498972214940;51.0204;15.4330;14.7010;
5251498982214940;51.2400;15.5306;14.4204;
5251498992214940;51.1546;15.5550;14.4326;
5251499002214940;51.0082;15.5672;14.7132;
5251499012214940;50.9106;15.6526;14.8474;
5251499022214940;50.8374;15.6648;14.8840;
5251499032214940;50.8618;15.6282;14.7986;
5251499042214940;50.9960;15.5916;14.7010;
5251499052214940;51.0570;15.6160;14.5912;
5251499062214940;51.1180;15.6038;14.5302;
5251499072214940;51.0936;15.6038;14.5302;
5251499082214940;51.1912;15.5794;14.4448;
5251499092214940;51.2644;15.5550;14.4570;
5251499102214940;51.3010;15.5306;14.4814;
5251499112214940;51.2034;15.5428;14.6400;
5251499122214940;51.0936;15.5306;14.8230;
5251499132214940;50.9350;15.5428;15.1402;
5251499142214940;50.8252;15.4818;15.2988;
5251499152214940;50.8862;15.4330;15.3964;
5251499162214940;50.8984;15.4574;15.4696;
5251499172214940;50.8130;15.4452;15.6770;
5251499182214940;50.8008;15.3964;15.7990;
5251499192214940;50.7642;15.3842;15.9332;
5251499202214940;50.7764;15.3232;16.0308;
5251499212214940;50.7886;15.2500;16.0186;
5251499222214940;50.7764;15.1768;16.1650;
5251499232214940;50.7398;15.0914;16.2626;
5251499242214940;50.5934;14.9206;16.4090;
5251499252214940;50.5690;14.7620;16.4700;
5251499262214940;50.4958;14.6034;16.5920;
5251499272214940;50.4348;14.4448;16.7506;
5251499282214940;50.3372;14.2984;16.9458;
5251499292214940;50.0810;14.1642;17.2996;
5251499302214940;49.9346;14.0300;17.5924;
5251499312214940;49.6662;13.8714;17.9950;
5251499322214940;49.5076;13.7494;18.2878;
5251499332214940;49.3978;13.6274;18.5074;
5251499342214940;49.1904;13.5054;18.6782;
5251499352214940;49.2270;13.4078;18.7270;
5251499362214940;49.1294;13.3102;18.8612;
5251499372214940;49.1660;13.2248;18.8978;
5251499382214940;49.1904;13.1394;18.8246;
5251499392214940;49.2514;13.1150;18.6294;
5251499402214940;49.2636;13.1150;18.5440;
5251499412214940;49.2514;13.1394;18.4586;
5251499422214940;49.2636;13.1516;18.5318;
5251499432214940;49.1050;13.1394;18.6538;
5251499442214940;48.9830;13.1394;18.7148;
5251499452214940;48.9464;13.2004;18.6294;
5251499462214940;48.8854;13.2736;18.6782;
5251499472214940;48.8244;13.3468;18.7148;
5251499482214940;48.9098;13.3956;18.6294;
5251499492214940;48.8244;13.4444;18.6294;
5251499502214940;48.8610;13.5420;18.4586;
5251499512214940;48.6902;13.7006;18.4708;
5251499522214940;48.5682;13.8592;18.4098;
5251499532214940;48.4828;13.9812;18.3854;
5251499542214940;48.3608;14.1276;18.3488;
5251499552214940;48.2022;14.2984;18.4342;
5251499562214940;48.0192;14.5180;18.5440;
5251499572214940;47.8850;14.7254;18.5562;
5251499582214940;47.7142;14.9328;18.6172;
5251499592214940;47.8606;15.1036;18.3366;
5251499602214940;48.0314;15.3598;17.9340;
5251499612214940;47.5312;17.1288;18.0316;
5251499622214940;47.7508;17.4094;17.3728;
5251499632214940;47.8728;17.6290;17.0068;
5251499642214940;47.8972;17.8974;16.7018;
5251499652214940;48.0924;18.1658;16.1650;
5251499662214940;48.3364;18.4342;15.5550;
5251499672214940;48.4706;18.7026;15.0670;
5251499682214940;48.6048;18.9222;14.7010;
5251499692214940;48.6170;19.1418;14.4814;
5251499702214940;48.4828;19.3492;14.4448;
5251499712214940;48.5194;19.5566;14.1276;
5251499722214940;48.6292;19.6786;13.6762;
5251499732214940;48.6902;19.7884;13.3468;
5251499742214940;48.6170;19.8982;13.2248;
5251499752214940;48.4584;19.9958;13.1882;
5251499762214940;48.3486;19.9836;13.0540;
5251499772214940;48.3120;20.0202;12.7734;
5251499782214940;48.3486;20.0202;12.6270;
5251499792214940;48.4096;19.9958;12.3708;
5251499802214940;48.4462;19.9836;12.1756;
5251499812214940;48.2510;19.8982;12.3098;
5251499822214940;48.2754;19.7884;12.1512;
5251499832214940;48.3120;19.7152;12.0170;
5251499842214940;48.4218;19.6908;11.8584;
5251499852214940;48.4950;19.6054;11.8218;
5251499862214940;48.5316;19.4956;11.7242;
5251499872214940;48.3852;19.3614;11.8462;
5251499882214940;48.2510;19.2394;12.0170;
5251499892214940;48.2510;19.1296;12.0170;
5251499902214940;48.2022;19.0442;12.1756;
5251499912214940;48.1534;18.8978;12.2244;
5251499922214940;48.0192;18.7758;12.4196;
5251499932214940;47.8850;18.6050;12.6392;
5251499942214940;47.7508;18.4952;12.8954;
5251499952214940;47.7508;18.3854;12.9930;
5251499962214940;47.7020;18.2756;13.1394;
5251499972214940;47.6532;18.1414;13.2004;
5251499982214940;47.7020;18.0194;13.1638;
5251499992214940;47.7508;17.9828;13.2248;
5251500002214940;47.6898;17.8730;13.3712;
5251500012214940;47.6044;17.8242;13.4810;
5251500022214940;47.6410;17.7022;13.4078;
5251500032214940;47.8240;17.6046;13.2126;
5251500042214940;48.0192;17.5314;13.0296;
5251500052214940;48.2510;17.4826;12.8588;
5251500062214940;48.3486;17.3972;12.8344;
5251500072214940;48.4462;17.2508;12.7490;
5251500082214940;48.5438;17.1898;12.6392;
5251500092214940;48.2754;17.0678;12.9808;
5251500102214940;48.3120;17.0190;13.0052;
5251500112214940;48.2388;16.9702;13.1028;
5251500122214940;48.2022;16.9214;13.1150;
5251500132214940;48.2144;16.9336;13.1516;
5251500142214940;48.1168;16.8970;13.1516;
5251500152214940;48.1168;16.8848;13.2736;
5251500162214940;48.0436;16.8604;13.4322;
5251500172214940;48.4218;16.9214;12.9564;
5251500182214940;48.4706;16.9336;13.0052;
5251500192214940;48.3608;16.9336;13.0662;
5251500202214940;48.1290;16.9214;13.3834;
5251500212214940;47.8484;16.8848;13.6762;
5251500222214940;47.5800;16.8726;14.0422;
5251500232214940;47.2872;16.8604;14.3472;
5251500242214940;47.0676;16.8238;14.5058;
5251500252214940;46.9700;16.8360;14.6156;
5251500262214940;46.8968;16.8726;14.6400;
5251500272214940;46.9822;16.9214;14.6156;
5251500282214940;47.3238;16.9580;14.2496;
5251500292214940;47.6044;17.0312;13.8470;
5251500302214940;47.8606;17.1044;13.4932;
5251500312214940;48.1534;17.1898;13.0906;
5251500322214940;48.2754;17.2996;12.8832;
5251500332214940;48.2876;17.2996;12.8954;
5251500342214940;48.1290;17.3362;12.9808;
5251500352214940;47.8850;17.3606;13.1150;
5251500362214940;47.4824;17.3850;13.4444;
5251500372214940;47.0432;17.3606;13.7616;
5251500382214940;46.7992;17.4094;14.0788;
5251500392214940;46.4820;17.4704;14.4204;
5251500402214940;46.1770;17.4704;14.7254;
5251500412214940;45.9940;17.5680;14.9084;
5251500422214940;45.8964;17.6656;14.9450;
5251500432214940;45.8964;17.8242;15.0670;
5251500442214940;45.9330;17.9706;15.0914;
5251500452214940;45.8842;18.1170;15.2012;
5251500462214940;45.7988;18.3000;15.2256;
5251500472214940;45.7134;18.4708;15.1768;
5251500482214940;45.8476;18.6904;15.0426;
5251500492214940;45.7744;18.9100;15.0670;
5251500502214940;45.7500;19.1174;15.1036;
5251500512214940;45.6402;19.2638;15.2134;
5251500522214940;45.3840;19.4102;15.3842;
5251500532214940;45.4450;19.6298;15.3110;
5251500542214940;45.5182;19.7762;15.2500;
5251500552214940;45.6036;19.9470;15.1890;
5251500562214940;45.6890;20.1422;15.0548;
5251500572214940;45.8354;20.3252;14.7254;
5251500582214940;45.9696;20.5570;14.5546;
5251500592214940;46.2258;20.8376;14.1398;
5251500602214940;46.4820;21.1182;13.7860;
5251500612214940;46.4454;21.3134;13.7128;
5251500622214940;46.3844;21.6062;13.6396;
5251500632214940;46.4088;21.8624;13.4566;
5251500642214940;46.3478;22.1674;13.4322;
5251500652214940;46.2624;22.4114;13.5054;
5251500662214940;46.1892;22.6310;13.4932;
5251500672214940;46.2258;22.8994;13.2980;
5251500682214940;46.4088;23.2166;12.9076;
5251500692214940;46.7138;23.5216;12.3952;
5251500702214940;46.9334;23.8144;11.9072;
5251500712214940;47.0554;24.0462;11.6632;
5251500722214940;47.1164;24.2536;11.3338;
5251500732214940;47.2018;24.5342;11.0288;
5251500742214940;47.1896;24.7660;10.8214;
5251500752214940;47.0310;24.9246;10.7848;
5251500762214940;46.9212;25.0222;10.8458;
5251500772214940;46.8846;25.2418;10.7970;
5251500782214940;46.7870;25.4004;10.7970;
5251500792214940;46.7260;25.6078;10.7726;
5251500802214940;46.8724;25.7664;10.5774;
5251500812214940;46.9090;25.9128;10.3822;
5251500822214940;47.0676;26.0592;10.0406;
5251500832214940;47.3848;26.2178;9.6502;
5251500842214940;47.5068;26.3764;9.3452;
5251500852214940;47.6532;26.4496;9.0402;
5251500862214940;47.1530;27.1084;10.5164;
5251500872214940;47.2750;27.2182;10.3700;
5251500882214940;47.2384;27.3280;10.4188;
5251500892214940;47.2994;27.4012;10.3456;
5251500902214940;47.4214;27.5110;10.2846;
5251500912214940;47.3482;27.6452;10.5164;
5251500922214940;47.2872;27.7794;10.7116;
5251500932214940;47.2384;27.8770;10.9434;
5251500942214940;47.2384;27.9624;10.9922;
5251500952214940;47.2994;28.0844;10.9922;
5251500962214940;47.3726;28.1942;10.9922;
5251500972214940;47.3970;28.3406;11.0166;
5251500982214940;47.2506;28.4992;11.2850;
5251500992214940;47.1408;28.5602;11.2850;
5251501002214940;47.2018;28.6334;11.2362;
5251501012214940;47.0920;28.7554;11.5046;
5251501022214940;46.8724;28.8774;11.8462;
5251501032214940;46.7260;28.9506;12.1146;
5251501042214940;46.6040;28.9872;12.2732;
5251501052214940;46.4210;29.0116;12.5660;
5251501062214940;46.5064;29.0238;12.5782;
5251501072214940;46.5186;29.0970;12.6514;
5251501082214940;46.5186;29.1336;12.7734;
5251501092214940;46.5796;29.1458;12.6514;
5251501102214940;46.9090;29.1458;12.2854;
5251501112214940;47.0676;29.1580;12.1146;
5251501122214940;47.1774;29.1580;12.0902;
5251501132214940;47.5190;29.1092;11.8096;
5251501142214940;47.9216;29.0726;11.5412;
5251501152214940;48.2632;29.0360;11.3338;
5251501162214940;48.5926;29.0238;11.0898;
5251501172214940;48.8122;28.9262;11.0044;
5251501182214940;49.0196;28.8652;11.1264;
5251501192214940;49.1782;28.7798;11.1386;
5251501202214940;49.2880;28.6822;11.1508;
5251501212214940;49.2392;28.6212;11.5534;
5251501222214940;48.9342;28.4992;12.0048;
5251501232214940;48.7634;28.3894;12.5050;
5251501242214940;48.6292;28.2674;12.9686;
5251501252214940;48.4950;28.1820;13.3346;
5251501262214940;48.3608;28.1088;13.7250;
5251501272214940;48.1778;27.9624;14.0422;
5251501282214940;48.1290;27.8160;14.4570;
5251501292214940;48.0802;27.7062;14.7376;
5251501302214940;48.0314;27.5720;15.0304;
5251501312214940;48.0802;27.4134;15.1524;
5251501322214940;48.0070;27.2670;15.3720;
5251501332214940;48.0924;27.1328;15.4818;
5251501342214940;48.0924;26.9376;15.5794;
5251501352214940;48.0802;26.8400;15.7624;
5251501362214940;48.2144;26.7546;15.7014;
5251501372214940;48.3364;26.6570;15.4330;
5251501382214940;48.4828;26.6082;15.3476;
5251501392214940;48.4096;26.5838;15.4330;
5251501402214940;48.4462;26.4984;15.3720;
5251501412214940;48.5682;26.5228;15.3842;
5251501422214940;48.4584;26.5472;15.4330;
5251501432214940;48.6292;26.5594;15.2744;
5251501442214940;48.6536;26.5472;15.2378;
5251501452214940;48.6658;26.5350;15.3232;
5251501462214940;48.7146;26.5228;15.2378;
5251501472214940;48.7146;26.4862;15.2866;
5251501482214940;48.6780;26.5106;15.3964;
5251501492214940;48.5072;26.4618;15.5306;
5251501502214940;48.4950;26.4252;15.5062;
5251501512214940;48.4340;26.4130;15.6160;
5251501522214940;48.2510;26.3886;15.7502;
5251501532214940;48.1168;26.3642;15.7624;
5251501542214940;47.9826;26.3276;15.9210;
5251501552214940;47.9094;26.3032;15.8478;
5251501562214940;47.8118;26.2788;15.8844;
5251501572214940;47.6898;26.1812;15.8966;
5251501582214940;47.6044;26.1202;15.9942;
5251501592214940;47.5068;26.0470;16.0796;
5251501602214940;47.5678;25.9860;16.0430;
5251501612214940;47.4458;25.8640;16.2870;
5251501622214940;47.5800;25.8152;16.0552;
5251501632214940;47.7020;25.7054;15.9576;
5251501642214940;47.8240;25.6200;15.7380;
5251501652214940;47.9338;25.5712;15.5672;
5251501662214940;48.1412;25.4736;15.2866;
5251501672214940;48.3242;25.3638;14.9572;
5251501682214940;48.2754;25.2418;14.9450;
5251501692214940;48.2266;25.2174;14.9450;
5251501702214940;47.9704;25.0710;15.2378;
5251501712214940;47.8362;24.9856;15.4208;
5251501722214940;47.6654;24.8392;15.5794;
5251501732214940;47.6288;24.7294;15.7014;
5251501742214940;47.5068;24.6318;15.8356;
5251501752214940;47.4458;24.5220;15.9210;
5251501762214940;47.5800;24.4854;15.6648;
5251501772214940;47.9460;24.3512;15.1646;
5251501782214940;48.2022;24.2780;14.8596;
5251501792214940;48.3852;24.2048;14.5058;
5251501802214940;48.6414;24.1194;14.1398;
5251501812214940;48.8976;24.0096;13.7738;
5251501822214940;49.1172;23.9120;13.3224;
5251501832214940;49.3490;23.8388;12.9320;
5251501842214940;49.4100;23.7168;12.7002;
5251501852214940;49.4100;23.6314;12.6270;
5251501862214940;49.4588;23.5582;12.5172;
5251501872214940;49.4100;23.4484;12.5172;
5251501882214940;49.3734;23.3996;12.5660;
5251501892214940;49.2148;23.3508;12.6148;
5251501902214940;48.9708;23.3020;12.9198;
5251501912214940;48.6414;23.2044;13.3590;
5251501922214940;48.3120;23.0580;13.7494;
5251501932214940;47.9582;23.0092;14.1764;
5251501942214940;47.7630;22.9116;14.3350;
5251501952214940;47.8240;22.8750;14.2618;
5251501962214940;47.7996;22.8140;14.2252;
5251501972214940;47.8850;22.7286;14.0910;
5251501982214940;48.1778;22.6432;13.7860;
5251501992214940;48.3730;22.5578;13.5420;
5251502002214940;48.6780;22.5334;13.1272;
5251502012214940;49.0196;22.4602;12.7246;
5251502022214940;49.1660;22.3626;12.3952;
5251502032214940;49.2148;22.3138;12.3464;
5251502042214940;49.2880;22.2162;12.3220;
5251502052214940;49.2636;22.1186;12.3098;
5251502062214940;49.3612;22.0576;12.2000;
5251502072214940;49.4954;22.0210;11.9438;
5251502082214940;49.6296;21.9600;11.9316;
5251502092214940;49.7272;21.9478;11.8340;
5251502102214940;49.7028;21.9478;11.8950;
5251502112214940;49.7028;21.8624;11.8828;
5251502122214940;49.6662;21.8014;11.7730;
5251502132214940;49.6784;21.7892;11.7486;
5251502142214940;49.5564;21.7404;11.8584;
5251502152214940;49.3612;21.6916;12.1024;
5251502162214940;49.1050;21.6306;12.3342;
5251502172214940;48.8244;21.5818;12.6148;
5251502182214940;48.7390;21.5696;12.7612;
5251502192214940;48.5682;21.5940;13.0174;
5251502202214940;48.4462;21.6428;13.2370;
5251502212214940;48.3486;21.6184;13.4322;
5251502222214940;48.2144;21.6916;13.6030;
5251502232214940;48.0802;21.7038;13.7982;
5251502242214940;47.9826;21.7160;13.9568;
5251502252214940;48.0192;21.7648;13.9202;
5251502262214940;48.0070;21.7526;14.0422;
5251502272214940;48.0436;21.8014;14.0056;
5251502282214940;48.0924;21.8502;13.9690;
5251502292214940;48.0070;21.8746;14.0910;
5251502302214940;47.9216;21.8868;14.2130;
5251502312214940;47.9704;21.9356;14.2008;
5251502322214940;48.1168;22.0820;14.0178;
5251502332214940;48.2876;22.1186;13.7860;
5251502342214940;48.4706;22.2528;13.5054;
5251502352214940;48.5438;22.2772;13.3712;
5251502362214940;48.6414;22.3016;13.3102;
5251502372214940;48.6414;22.3870;13.2736;
5251502382214940;48.6536;22.4236;13.3224;
5251502392214940;48.5560;22.4846;13.4688;
5251502402214940;48.4218;22.4968;13.6518;
5251502412214940;48.3120;22.6188;13.8714;
5251502422214940;48.0924;22.6554;14.2008;
5251502432214940;48.0802;22.7408;14.3350;
5251502442214940;47.9704;22.8384;14.4448;
5251502452214940;48.1046;22.9604;14.4936;
5251502462214940;48.3120;23.0946;14.2862;
5251502472214940;48.5804;23.1800;14.0422;
5251502482214940;48.6536;23.2654;14.0910;
5251502492214940;48.7024;23.3142;14.2130;
5251502502214940;48.7756;23.3386;14.1764;
5251502512214940;48.8000;23.3996;14.3228;
5251502522214940;48.8000;23.4728;14.4814;
5251502532214940;48.7756;23.5216;14.5302;
5251502542214940;48.5072;23.5704;14.9328;
5251502552214940;48.2144;23.6314;15.3354;
5251502562214940;48.0680;23.6680;15.5428;
5251502572214940;47.8728;23.7412;15.7258;
5251502582214940;47.8728;23.8388;15.8234;
5251502592214940;47.7386;23.9364;15.7990;
5251502602214940;47.6532;24.1072;15.8234;
5251502612214940;47.5434;24.2902;15.9332;
5251502622214940;47.4336;24.4366;16.0186;
5251502632214940;47.4336;24.5830;15.8478;
5251502642214940;47.5068;24.7538;15.5916;
5251502652214940;47.6776;24.9124;15.2744;
5251502662214940;47.7020;25.0344;15.1890;
5251502672214940;47.7020;25.1564;15.1402;
5251502682214940;47.8728;25.2174;14.9816;
5251502692214940;47.8850;25.2174;14.7986;
5251502702214940;48.0558;25.2662;14.4936;
5251502712214940;48.2876;25.2906;14.2984;
5251502722214940;48.3608;25.2784;14.1764;
5251502732214940;48.4096;25.2784;14.1886;
5251502742214940;48.3486;25.2418;14.2496;
5251502752214940;48.2876;25.1808;14.3106;
5251502762214940;48.1900;25.1564;14.4082;
5251502772214940;48.0924;25.1808;14.5912;
5251502782214940;48.1046;25.1442;14.6522;
5251502792214940;48.0680;25.1808;14.6888;
5251502802214940;48.0436;25.1686;14.7498;
5251502812214940;47.9948;25.1808;14.7620;
5251502822214940;47.9582;25.1808;14.7010;
5251502832214940;48.0680;25.2174;14.5668;
5251502842214940;48.2022;25.1564;14.3960;
5251502852214940;48.4218;25.0710;14.2130;
5251502862214940;48.5194;25.0100;14.1642;
5251502872214940;48.6048;24.9246;13.9934;
5251502882214940;48.8122;24.8514;13.8592;
5251502892214940;49.0074;24.6928;13.6884;
5251502902214940;49.2148;24.5952;13.4810;
5251502912214940;49.4588;24.4610;13.3590;
5251502922214940;49.5808;24.3268;13.1638;
5251502932214940;49.7150;24.2170;13.0174;
5251502942214940;49.8614;24.1194;12.9442;
5251502952214940;49.8980;23.9730;12.9808;
5251502962214940;49.9224;23.8510;13.0662;
5251502972214940;49.8004;23.7900;13.2370;
5251502982214940;49.8004;23.7412;13.3346;
5251502992214940;49.6418;23.7046;13.4810;
5251503002214940;49.5442;23.6680;13.6152;
5251503012214940;49.4954;23.6314;13.7616;
5251503022214940;49.3490;23.5826;13.8226;
5251503032214940;49.2514;23.5582;13.9690;
5251503042214940;49.1294;23.5582;14.0056;
5251503052214940;49.0928;23.5094;14.0666;
5251503062214940;49.1416;23.5094;14.0666;
5251503072214940;49.2758;23.4484;14.0056;
5251503082214940;49.2758;23.4362;14.0178;
5251503092214940;49.4222;23.4240;13.8348;
5251503102214940;49.5808;23.3996;13.6518;
5251503112214940;49.7516;23.4240;13.5298;
5251503122214940;49.9102;23.4484;13.4322;
5251503132214940;50.0566;23.4728;13.2370;
5251503142214940;50.0810;23.4362;13.1760;
5251503152214940;50.0932;23.4118;13.0418;
5251503162214940;50.1786;23.3630;13.0662;
5251503172214940;50.1420;23.2898;13.1150;
5251503182214940;49.9956;23.2288;13.3224;
5251503192214940;49.9712;23.1068;13.3468;
5251503202214940;49.9468;22.9482;13.3590;
5251503212214940;49.9956;22.7896;13.4078;
5251503222214940;50.0078;22.6310;13.4688;
5251503232214940;49.9102;22.4724;13.7494;
5251503242214940;49.7516;22.3138;13.9080;
5251503252214940;49.5930;22.1674;14.1398;
5251503262214940;49.7516;22.0454;14.1520;
5251503272214940;49.7516;21.9356;14.2740;
5251503282214940;49.7882;21.8502;14.4570;
5251503292214940;49.6418;21.7648;14.7376;
5251503302214940;49.6906;21.6428;14.7864;
5251503312214940;49.8492;21.5452;14.7986;
5251503322214940;49.9468;21.4964;14.9206;
5251503332214940;50.0078;21.4720;14.9450;
5251503342214940;49.9224;21.3622;15.1036;
5251503352214940;49.8614;21.3134;15.2378;
5251503362214940;49.8980;21.3012;15.1402;
5251503372214940;50.0444;21.3378;14.9816;
5251503382214940;50.0200;21.4110;15.0792;
5251503392214940;50.0200;21.5330;15.0182;
5251503402214940;50.1420;21.6062;14.8230;
5251503412214940;50.3006;21.7038;14.6278;
5251503422214940;50.4958;21.9234;14.3716;
5251503432214940;50.6422;22.0576;14.2252;
5251503442214940;50.6056;22.2162;14.2252;
5251503452214940;50.6178;22.3992;14.1154;
5251503462214940;50.6666;22.6188;13.9690;
5251503472214940;50.6788;22.8018;13.8104;
5251503482214940;50.8008;22.9726;13.5908;
5251503492214940;50.8008;23.1434;13.4566;
5251503502214940;50.7764;23.3142;13.2858;
5251503512214940;50.7764;23.5094;13.1150;
5251503522214940;50.8496;23.6436;12.9076;
5251503532214940;50.8496;23.7656;12.7856;
5251503542214940;50.7642;23.8022;12.7124;
5251503552214940;50.6178;23.8510;12.7856;
5251503562214940;50.4104;23.9364;12.9808;
5251503572214940;50.2274;23.9608;13.0906;
5251503582214940;50.1908;23.9730;13.1882;
5251503592214940;49.9590;23.9486;13.3590;
5251503602214940;49.7394;23.9486;13.4932;
5251503612214940;49.6174;23.8876;13.6518;
5251503622214940;49.5564;23.8632;13.7372;
5251503632214940;49.5198;23.8144;13.7860;
5251503642214940;49.5198;23.7778;13.6884;
5251503652214940;49.5686;23.7412;13.5542;
5251503662214940;49.5930;23.6558;13.4688;
5251503672214940;49.6540;23.5948;13.3102;
5251503682214940;49.7028;23.5582;13.3224;
5251503692214940;49.8004;23.5216;13.1760;
5251503702214940;49.8492;23.4606;12.9808;
5251503712214940;49.9346;23.4240;12.9076;
5251503722214940;50.0078;23.3264;12.8100;
5251503732214940;49.9834;23.3020;12.9076;
5251503742214940;49.8980;23.2776;13.0174;
5251503752214940;49.9224;23.2410;12.9198;
5251503762214940;49.9590;23.1678;12.8344;
5251503772214940;49.8492;23.0946;12.8954;
5251503782214940;49.8492;23.0458;12.8466;
5251503792214940;49.8736;22.9604;12.7124;
5251503802214940;49.8980;22.9238;12.6636;
5251503812214940;50.0200;22.7774;12.4806;
5251503822214940;50.0566;22.7042;12.3464;
5251503832214940;50.1054;22.6310;12.3952;
5251503842214940;50.1542;22.5944;12.3830;
5251503852214940;50.2030;22.5212;12.3708;
5251503862214940;50.3006;22.4602;12.4806;
5251503872214940;50.3372;22.3870;12.5416;
5251503882214940;50.3128;22.3016;12.5904;
5251503892214940;50.3738;22.2894;12.6026;
5251503902214940;50.3616;22.1918;12.5904;
5251503912214940;50.4226;22.1430;12.6026;
5251503922214940;50.4836;22.0942;12.5050;
5251503932214940;50.6056;22.0210;12.3342;
5251503942214940;50.5934;21.9722;12.2244;
5251503952214940;50.7520;21.9844;12.0048;
5251503962214940;50.8984;21.9478;11.8462;
5251503972214940;50.8618;21.8746;11.9316;
5251503982214940;50.8740;21.8380;12.0170;
5251503992214940;50.8252;21.7770;11.9926;
5251504002214940;50.8984;21.6672;11.8828;
5251504012214940;50.8374;21.6794;11.9926;
5251504022214940;50.8618;21.6550;12.0170;
5251504032214940;50.8252;21.6306;11.9682;
5251504042214940;50.7886;21.6062;11.9560;
5251504052214940;50.7764;21.6550;11.8218;
5251504062214940;50.7642;21.6794;11.7486;
5251504072214940;50.8008;21.7404;11.7852;
5251504082214940;50.7276;21.8258;11.9194;
5251504092214940;50.7764;21.8624;11.8462;
5251504102214940;50.6910;21.8990;11.9438;
5251504112214940;50.5812;22.0332;12.0902;
5251504122214940;50.4592;22.1430;12.2854;
5251504132214940;50.4470;22.2650;12.3830;
5251504142214940;50.3738;22.4236;12.3830;
5251504152214940;50.3738;22.5212;12.3342;
5251504162214940;50.4226;22.6920;12.3098;
5251504172214940;50.4348;22.8506;12.2976;
5251504182214940;50.5202;23.0580;12.1878;
5251504192214940;50.4714;23.1678;12.2976;
5251504202214940;50.5080;23.3386;12.2610;
5251504212214940;50.4836;23.5338;12.3464;
5251504222214940;50.5080;23.6680;12.4318;
5251504232214940;50.4226;23.8632;12.5538;
5251504242214940;50.1664;23.9852;12.8100;
5251504252214940;49.9102;24.1316;13.1760;
5251504262214940;49.6662;24.2414;13.5664;
5251504272214940;49.4344;24.4244;13.8958;
5251504282214940;49.2026;24.5708;14.2862;
5251504292214940;48.9830;24.6440;14.5668;
5251504302214940;48.7756;24.7782;14.8352;
5251504312214940;48.6414;24.9002;15.1158;
5251504322214940;48.5072;24.9734;15.2744;
5251504332214940;48.3364;25.0466;15.5062;
5251504342214940;48.1534;25.1320;15.7014;
5251504352214940;47.9948;25.1198;15.8600;
5251504362214940;47.8118;25.1320;16.0918;
5251504372214940;47.5800;25.1198;16.4334;
5251504382214940;47.3116;25.0710;16.8604;
5251504392214940;46.9456;25.0100;17.2752;
5251504402214940;46.6772;25.0100;17.6656;
5251504412214940;46.6162;24.9368;17.8120;
5251504422214940;46.3356;24.8026;18.1658;
5251504432214940;46.1892;24.7294;18.4220;
5251504442214940;45.9696;24.5708;18.6782;
5251504452214940;45.7988;24.4488;18.8368;
5251504462214940;45.6280;24.2902;19.0198;
5251504472214940;45.5792;24.1072;19.0320;
5251504482214940;45.5914;23.9242;19.0198;
5251504492214940;45.2742;23.7412;19.3248;
5251504502214940;45.1888;23.5460;19.3980;
5251504512214940;44.9692;23.3752;19.6054;
5251504522214940;44.8472;23.2288;19.5932;
5251504532214940;44.7374;23.0580;19.6420;
5251504542214940;44.7862;22.9360;19.4468;
5251504552214940;44.7984;22.8140;19.3248;
5251504562214940;44.7008;22.6554;19.3248;
5251504572214940;44.7496;22.4968;19.1296;
5251504582214940;44.7374;22.3626;18.9832;
5251504592214940;44.7374;22.1430;18.8734;
5251504602214940;44.6886;21.9966;18.8978;
5251504612214940;44.6886;21.8380;18.9100;
5251504622214940;44.5544;21.5818;18.9832;
5251504632214940;44.4324;21.2768;19.1052;
5251504642214940;44.2982;21.0084;19.2150;
5251504652214940;44.1884;20.7278;19.3248;
5251504662214940;44.0420;20.4472;19.4712;
5251504672214940;44.1762;20.1666;19.2882;
5251504682214940;44.2494;19.8372;19.1418;
5251504692214940;44.3958;19.5200;18.9466;
5251504702214940;44.4568;19.2760;18.8246;
5251504712214940;44.5300;19.0076;18.6904;
5251504722214940;44.6032;18.7148;18.5196;
5251504732214940;44.6276;18.4952;18.4830;
5251504742214940;44.7008;18.2268;18.3488;
5251504752214940;44.5788;18.0194;18.3732;
5251504762214940;44.5666;17.7876;18.3854;
5251504772214940;44.5178;17.5070;18.3000;
5251504782214940;44.4568;17.2752;18.2756;
5251504792214940;44.4080;17.1166;18.2756;
5251504802214940;44.3348;16.9092;18.3122;
5251504812214940;44.3836;16.7018;18.0926;
5251504822214940;44.4934;16.5554;17.8730;
5251504832214940;44.5788;16.3968;17.6656;
5251504842214940;44.7008;16.2870;17.3972;
5251504852214940;44.7618;16.2260;17.2752;
5251504862214940;44.7618;16.1284;17.2264;
5251504872214940;44.7984;16.0064;17.1288;
5251504882214940;44.9448;15.9942;16.8970;
5251504892214940;45.1644;15.9576;16.7384;
5251504902214940;45.3840;15.9576;16.4944;
5251504912214940;45.5548;16.0064;16.2870;
5251504922214940;45.6646;15.9942;16.1650;
5251504932214940;45.7744;16.0064;16.0186;
5251504942214940;45.7622;16.0674;15.9820;
5251504952214940;46.1526;16.1528;15.5672;
5251504962214940;46.4088;16.1528;15.3110;
5251504972214940;46.6284;16.2138;15.0182;
5251504982214940;46.7138;16.2382;14.8596;
5251504992214940;46.8114;16.3114;14.7620;
5251505002214940;47.0920;16.3480;14.4936;
5251505012214940;47.2872;16.4334;14.2252;
5251505022214940;47.7752;16.4944;13.7616;
5251505032214940;47.7264;16.5798;13.8104;
5251505042214940;47.7752;16.6652;13.7372;
5251505052214940;47.8240;16.8238;13.6640;
5251505062214940;47.8972;17.0190;13.6518;
5251505072214940;47.9460;17.0922;13.7128;
5251505082214940;47.8728;17.2752;13.7738;
5251505092214940;47.8606;17.4948;13.8714;
5251505102214940;47.8240;17.6534;13.8836;
5251505112214940;47.8850;17.7754;13.8958;
5251505122214940;47.9460;17.9828;13.8714;
5251505132214940;47.8972;18.0926;14.0178;
5251505142214940;47.7996;18.2146;14.1520;
5251505152214940;47.9216;18.3610;14.0178;
5251505162214940;47.9460;18.5074;14.0788;
5251505172214940;47.8850;18.5928;14.1398;
5251505182214940;47.8972;18.7636;14.2984;
5251505192214940;47.9338;18.9710;14.2740;
5251505202214940;47.8240;19.1296;14.3716;
5251505212214940;47.8240;19.3004;14.4082;
5251505222214940;47.7996;19.4468;14.3960;
5251505232214940;47.7386;19.6054;14.4448;
5251505242214940;47.7874;19.7518;14.3472;
5251505252214940;47.9216;19.9226;14.1154;
5251505262214940;48.0314;20.0690;13.8470;
5251505272214940;47.9704;20.2032;13.7982;
5251505282214940;48.1046;20.3618;13.6274;
5251505292214940;48.0558;20.5082;13.5420;
5251505302214940;47.9826;20.6668;13.5298;
5251505312214940;47.7752;20.8254;13.6396;
5251505322214940;47.5068;20.9840;13.8470;
5251505332214940;47.1896;21.0938;14.1032;
5251505342214940;46.8602;21.2158;14.4326;
5251505352214940;46.6772;21.3622;14.5546;
5251505362214940;46.6162;21.4720;14.5790;
5251505372214940;46.5308;21.6306;14.5790;
5251505382214940;46.7016;21.7892;14.3228;
5251505392214940;46.9334;21.9234;14.0544;
5251505402214940;47.1774;22.0942;13.7250;
5251505412214940;47.5556;22.3016;13.4200;
5251505422214940;47.7630;22.4480;13.1638;
5251505432214940;48.0558;22.6066;12.8344;
5251505442214940;48.0802;22.7896;12.7612;
5251505452214940;48.2998;22.8994;12.4684;
5251505462214940;48.5804;23.0458;12.1756;
5251505472214940;48.7512;23.1800;11.9194;
5251505482214940;48.8244;23.2776;11.7730;
5251505492214940;48.9952;23.3752;11.5656;
5251505502214940;49.1782;23.4606;11.2728;
5251505512214940;49.3124;23.5460;11.1264;
5251505522214940;49.3490;23.6680;11.0898;
5251505532214940;49.3246;23.7778;11.1874;
5251505542214940;49.0684;23.8266;11.5046;
5251505552214940;48.9342;23.8754;11.6754;
5251505562214940;48.9586;23.9730;11.7120;
5251505572214940;48.7390;24.0462;11.8340;
5251505582214940;48.6536;24.1194;11.9926;
5251505592214940;48.4828;24.1560;12.2244;
5251505602214940;48.4950;24.1560;12.1756;
5251505612214940;48.5560;24.2292;12.1390;
5251505622214940;48.6536;24.2780;12.0780;
5251505632214940;48.7268;24.3756;11.9804;
5251505642214940;48.7146;24.4000;12.0048;
5251505652214940;48.7756;24.4244;12.1146;
5251505662214940;48.8976;24.4366;11.9560;
5251505672214940;49.0562;24.4488;11.8340;
5251505682214940;49.1904;24.4488;11.8218;
5251505692214940;49.2758;24.4000;11.7852;
5251505702214940;49.4100;24.3756;11.6998;
5251505712214940;49.4954;24.3024;11.7974;
5251505722214940;49.6662;24.2658;11.6998;
5251505732214940;49.8370;24.2170;11.6144;
5251505742214940;49.7882;24.1804;11.8584;
5251505752214940;49.6662;24.1316;12.1390;
5251505762214940;49.5930;24.1072;12.3708;
5251505772214940;49.5808;23.9974;12.3952;
5251505782214940;49.6052;23.9486;12.4074;
5251505792214940;49.5930;23.8998;12.4928;
5251505802214940;49.4100;23.7656;12.8100;
5251505812214940;49.3368;23.7168;12.8588;
5251505822214940;49.4710;23.6192;12.7856;
5251505832214940;49.5930;23.5216;12.5538;
5251505842214940;49.7394;23.3630;12.3220;
5251505852214940;49.7150;23.2532;12.3952;
5251505862214940;49.6784;23.1556;12.5538;
5251505872214940;49.7516;23.0214;12.5172;
5251505882214940;49.8736;22.9482;12.4562;
5251505892214940;49.8858;22.7896;12.4928;
5251505902214940;49.7760;22.6676;12.6392;
5251505912214940;49.7394;22.5700;12.8588;
5251505922214940;49.6906;22.4602;13.0296;
5251505932214940;49.6662;22.4114;13.1150;
5251505942214940;49.4710;22.2772;13.3468;
5251505952214940;49.2270;22.1674;13.6518;
5251505962214940;49.0562;22.1186;13.8348;
5251505972214940;48.9952;22.0576;13.9446;
5251505982214940;48.9586;22.0210;13.9568;
5251505992214940;48.9342;21.9356;13.8958;
5251506002214940;48.8244;21.8746;13.9202;
5251506012214940;48.8854;21.7770;13.8958;
5251506022214940;49.0684;21.7404;13.6518;
5251506032214940;49.2026;21.6916;13.5054;
5251506042214940;49.2270;21.5940;13.4444;
5251506052214940;49.0806;21.4720;13.5298;
5251506062214940;48.9830;21.3500;13.6884;
5251506072214940;48.8610;21.3012;13.7982;
5251506082214940;48.5926;21.2768;14.1764;
5251506092214940;48.2266;21.2402;14.6034;
5251506102214940;47.7508;21.1304;15.1768;
5251506112214940;47.5312;21.0694;15.4330;
5251506122214940;47.2506;21.0084;15.7624;
5251506132214940;47.1652;20.9352;15.9698;
5251506142214940;47.1896;20.8620;15.8844;
5251506152214940;47.2262;20.7888;15.7624;
5251506162214940;47.6166;20.7034;15.2866;
5251506172214940;47.9460;20.6180;14.7986;
5251506182214940;48.2754;20.6058;14.3228;
5251506192214940;48.4706;20.5326;14.0300;
5251506202214940;48.7146;20.4960;13.6274;
5251506212214940;48.9098;20.5448;13.3468;
5251506222214940;48.9830;20.5692;13.1638;
5251506232214940;49.0562;20.5326;12.9930;
5251506242214940;48.9220;20.4960;13.0296;
5251506252214940;48.7634;20.5082;13.0296;
5251506262214940;48.6658;20.4472;13.0906;
5251506272214940;48.5438;20.4472;13.1394;
5251506282214940;48.3486;20.3984;13.2492;
5251506292214940;48.1778;20.3496;13.3102;
5251506302214940;48.0436;20.3496;13.3712;
5251506312214940;47.8850;20.3374;13.5054;
5251506322214940;47.9948;20.3984;13.2614;
5251506332214940;48.0192;20.4106;13.1516;
5251506342214940;48.0558;20.4350;12.9442;
5251506352214940;48.1412;20.4838;12.5904;
5251506362214940;48.3242;20.5570;12.3342;
5251506372214940;48.3730;20.6058;12.0902;
5251506382214940;48.2510;20.6668;12.1634;
5251506392214940;48.3242;20.7888;12.0780;
5251506402214940;48.1290;20.8620;12.2854;
5251506412214940;47.9094;20.9474;12.4928;
5251506422214940;47.8606;21.0450;12.5782;
5251506432214940;47.6410;21.1182;12.8710;
5251506442214940;47.5922;21.1914;12.9442;
5251506452214940;47.5434;21.2646;13.0540;
5251506462214940;47.6776;21.2524;12.8710;
5251506472214940;47.5678;21.1914;12.9198;
5251506482214940;47.5678;21.1182;12.9320;
5251506492214940;47.7386;21.0694;12.8100;
5251506502214940;47.7996;20.9840;12.6758;
5251506512214940;48.0680;20.8742;12.2976;
5251506522214940;48.0802;20.7400;12.1512;
5251506532214940;48.0558;20.6058;12.1146;
5251506542214940;47.9704;20.4960;12.0780;
5251506552214940;47.9582;20.4228;11.9926;
5251506562214940;48.0436;20.3252;11.7120;
5251506572214940;48.0070;20.2276;11.5412;
5251506582214940;48.0192;20.1544;11.4070;
5251506592214940;47.9216;20.1544;11.3704;
5251506602214940;47.9582;20.2032;11.1508;
5251506612214940;48.1900;20.2520;10.7238;
5251506622214940;48.3608;20.3740;10.2968;
5251506632214940;48.4462;20.4594;10.0528;
5251506642214940;48.5438;20.6058;9.8210;
5251506652214940;48.7268;20.8254;9.5160;
5251506662214940;48.9098;21.1304;9.2476;
5251506672214940;49.1172;21.4110;8.9670;
5251506682214940;49.2758;21.7282;8.7962;
5251506692214940;49.3368;22.0332;8.7108;
5251506702214940;49.3490;22.3992;8.8328;
5251506712214940;49.4954;22.8628;8.6864;
5251506722214940;49.5442;23.3020;8.7596;
5251506732214940;49.6174;23.8144;8.7840;
5251506742214940;49.7150;24.2902;8.8572;
5251506752214940;49.6418;24.7782;9.1012;
5251506762214940;49.7272;25.2296;9.2842;
5251506772214940;49.7760;25.7054;9.4672;
5251506782214940;50.0078;26.1324;9.5526;
5251506792214940;50.0566;26.5350;9.8088;
5251506802214940;50.0322;26.9010;10.1992;
5251506812214940;49.9590;27.2182;10.6872;
5251506822214940;49.8248;27.4744;11.0532;
5251506832214940;49.8858;27.7550;11.3582;
5251506842214940;49.9590;28.0966;11.6510;
5251506852214940;49.9346;28.3284;12.0414;
5251506862214940;49.8736;28.5480;12.4928;
5251506872214940;50.0078;28.7432;12.6514;
5251506882214940;50.2274;28.9384;12.7368;
5251506892214940;50.3738;29.0238;12.9198;
5251506902214940;50.4348;29.0970;13.2004;
5251506912214940;50.3860;29.0970;13.6762;
5251506922214940;50.2762;28.9994;13.9690;
5251506932214940;50.3250;28.9018;14.2130;
5251506942214940;50.3006;28.7310;14.3838;
5251506952214940;50.2640;28.5358;14.6034;
5251506962214940;50.2274;28.3040;14.7864;
5251506972214940;50.0810;28.0844;14.9694;
5251506982214940;50.0444;27.7794;15.1524;
5251506992214940;50.0810;27.4500;15.1158;
5251507002214940;50.0566;27.1206;15.1524;
5251507012214940;50.1054;26.8766;15.1158;
5251507022214940;49.9834;26.5838;15.2500;
5251507032214940;49.7638;26.2300;15.5428;
5251507042214940;49.5076;25.8884;15.7624;
5251507052214940;49.5198;25.5712;15.6892;
5251507062214940;49.6540;25.3150;15.5184;
5251507072214940;49.6784;25.0710;15.4574;
5251507082214940;49.7150;24.8148;15.4452;
5251507092214940;49.5564;24.5830;15.4940;
5251507102214940;49.4954;24.3512;15.4574;
5251507112214940;49.5930;24.2048;15.3232;
5251507122214940;49.8492;24.0096;15.0426;
5251507132214940;49.8614;23.8266;15.0304;
5251507142214940;49.7638;23.5948;15.1402;
5251507152214940;49.7394;23.4118;15.1158;
5251507162214940;49.7394;23.2288;15.1402;
5251507172214940;49.8370;23.0214;15.0914;
5251507182214940;50.0932;22.8384;14.8352;
5251507192214940;50.2396;22.6676;14.6888;
5251507202214940;50.2762;22.5578;14.6034;
5251507212214940;50.4714;22.4114;14.3472;
5251507222214940;50.6788;22.3260;14.0788;
5251507232214940;51.0082;22.2284;13.6884;
5251507242214940;51.2644;22.1308;13.3956;
5251507252214940;51.4962;22.0210;13.0662;
5251507262214940;51.7280;21.9722;12.7612;
5251507272214940;51.8378;21.8624;12.5294;
5251507282214940;51.8744;21.7648;12.4440;
5251507292214940;51.8744;21.7038;12.4562;
5251507302214940;51.8012;21.5940;12.5416;
5251507312214940;51.5938;21.4964;12.8100;
5251507322214940;51.4596;21.4232;12.8954;
5251507332214940;51.3254;21.3500;13.0296;
5251507342214940;51.1180;21.2524;13.3102;
5251507352214940;50.9350;21.2646;13.5298;
5251507362214940;50.8130;21.2036;13.7494;
5251507372214940;50.7764;21.1548;13.8592;
5251507382214940;50.7276;21.1426;13.9324;
5251507392214940;50.8740;21.1548;13.7738;
5251507402214940;50.9106;21.1304;13.7860;
5251507412214940;50.9594;21.1548;13.7982;
5251507422214940;50.9716;21.1548;13.8348;
5251507432214940;51.0936;21.1060;13.7738;
5251507442214940;51.1912;21.0572;13.6274;
5251507452214940;51.2522;21.0206;13.5786;
5251507462214940;51.3986;21.0450;13.4444;
5251507472214940;51.3498;21.0084;13.4688;
5251507482214940;51.2888;21.0328;13.5298;
5251507492214940;51.2400;21.0328;13.5420;
5251507502214940;51.3254;21.0572;13.3590;
5251507512214940;51.2888;21.0816;13.3590;
5251507522214940;51.2766;21.1914;13.3712;
5251507532214940;51.2034;21.2890;13.3712;
5251507542214940;51.0692;21.2768;13.3956;
5251507552214940;50.9716;21.3500;13.5054;
5251507562214940;50.8618;21.3744;13.5908;
5251507572214940;50.8008;21.4110;13.6274;
5251507582214940;50.7154;21.3866;13.7372;
5251507592214940;50.7276;21.3988;13.7616;
5251507602214940;50.7764;21.3744;13.6152;
5251507612214940;50.8496;21.3256;13.5054;
5251507622214940;50.9472;21.3622;13.4444;
5251507632214940;51.1302;21.3500;13.1638;
5251507642214940;51.2156;21.3256;13.0052;
5251507652214940;51.3132;21.2768;12.7612;
5251507662214940;51.3376;21.2890;12.6514;
5251507672214940;51.3132;21.2402;12.5538;
5251507682214940;51.2888;21.1914;12.5538;
5251507692214940;51.3864;21.2280;12.4928;
5251507702214940;51.4352;21.1914;12.3708;
5251507712214940;51.3742;21.1670;12.5172;
5251507722214940;51.3376;21.1426;12.5172;
5251507732214940;51.3254;21.1548;12.6148;
5251507742214940;51.3864;21.1304;12.5172;
5251507752214940;51.4474;21.1060;12.4928;
5251507762214940;51.4474;21.1060;12.5782;
5251507772214940;51.3864;21.0084;12.6148;
5251507782214940;51.3010;20.9352;12.6636;
5251507792214940;51.3376;20.8986;12.5904;
5251507802214940;51.4108;20.8254;12.5782;
5251507812214940;51.4840;20.7400;12.5172;
5251507822214940;51.3620;20.6424;12.7368;
5251507832214940;51.2034;20.5936;12.9076;
5251507842214940;51.0692;20.5448;13.0296;
5251507852214940;50.8740;20.5082;13.2492;
5251507862214940;50.8130;20.4838;13.3712;
5251507872214940;50.6788;20.4106;13.5054;
5251507882214940;50.5202;20.3862;13.6396;
5251507892214940;50.2396;20.3252;13.9446;
5251507902214940;49.9468;20.2886;14.1642;
5251507912214940;49.7394;20.2154;14.3716;
5251507922214940;49.6174;20.1178;14.4814;
5251507932214940;49.4466;20.0446;14.6156;
5251507942214940;49.2636;20.0080;14.7742;
5251507952214940;49.0074;19.9592;14.9084;
5251507962214940;48.7878;19.8860;15.0548;
5251507972214940;48.6536;19.8616;15.0792;
5251507982214940;48.7146;19.8006;14.9450;
5251507992214940;48.7634;19.7640;14.7132;
5251508002214940;48.7512;19.7640;14.5058;
5251508012214940;48.8244;19.7396;14.1764;
5251508022214940;48.8854;19.7152;13.8226;
5251508032214940;49.1660;19.6908;13.2492;
5251508042214940;49.4344;19.7152;12.6880;
5251508052214940;49.5930;19.7518;12.2122;
5251508062214940;49.6052;19.8006;11.8828;
5251508072214940;49.6418;19.8494;11.5290;
5251508082214940;49.6174;19.8738;11.2606;
5251508092214940;49.5686;19.9592;11.0532;
5251508102214940;49.4466;19.9714;10.9068;
5251508112214940;49.1538;20.1056;11.0044;
5251508122214940;48.8854;20.2520;11.0776;
5251508132214940;48.7146;20.3862;11.0654;
5251508142214940;48.6170;20.5814;10.9800;
5251508152214940;48.4950;20.7644;11.0044;
5251508162214940;48.4096;20.9718;11.0044;
5251508172214940;48.2998;21.1792;11.0166;
5251508182214940;48.2022;21.4354;11.1508;
5251508192214940;48.1046;21.5940;11.1874;
5251508202214940;48.1046;21.7526;11.2240;
5251508212214940;48.2144;21.9600;11.0654;
5251508222214940;48.2754;22.1552;11.0166;
5251508232214940;48.3974;22.3504;10.8946;
5251508242214940;48.4218;22.4846;10.8458;
5251508252214940;48.3852;22.6676;10.8702;
5251508262214940;48.3974;22.7896;10.8702;
5251508272214940;48.4340;22.9726;10.8702;
5251508282214940;48.4950;23.1434;10.7482;
5251508292214940;48.3852;23.2654;10.8336;
5251508302214940;48.2754;23.3752;10.9190;
5251508312214940;48.0558;23.4240;11.1020;
5251508322214940;47.9460;23.5094;11.1630;
5251508332214940;47.9704;23.5704;11.0898;
5251508342214940;47.8484;23.5704;11.0898;
5251508352214940;47.8484;23.5948;11.0898;
5251508362214940;47.7264;23.5826;11.2118;
5251508372214940;47.5434;23.5460;11.4436;
5251508382214940;47.4946;23.4850;11.4802;
5251508392214940;47.5556;23.4362;11.4192;
5251508402214940;47.4946;23.4484;11.4680;
5251508412214940;47.4946;23.4118;11.5900;
5251508422214940;47.6532;23.4484;11.4558;
5251508432214940;47.7142;23.4606;11.4802;
5251508442214940;47.7386;23.4484;11.5656;
5251508452214940;47.8972;23.4118;11.4924;
5251508462214940;47.9338;23.3996;11.6754;
5251508472214940;47.8606;23.4118;11.9194;
5251508482214940;48.0680;23.3752;11.8950;
5251508492214940;48.2144;23.3264;11.8706;
5251508502214940;48.3486;23.2288;11.8950;
5251508512214940;48.3852;23.1434;12.0902;
5251508522214940;48.4218;23.0336;12.1268;
5251508532214940;48.3852;23.0336;12.2732;
5251508542214940;48.4462;22.9970;12.3464;
5251508552214940;48.4950;22.9970;12.4074;
5251508562214940;48.3730;23.0092;12.8100;
5251508572214940;48.1534;23.0092;13.1882;
5251508582214940;47.9948;23.0702;13.4322;
5251508592214940;47.9704;23.1434;13.5298;
5251508602214940;48.1412;23.2898;13.4688;
5251508612214940;48.2876;23.3386;13.3956;
5251508622214940;48.2998;23.4118;13.4078;
5251508632214940;48.2998;23.4606;13.5176;
5251508642214940;48.2754;23.4606;13.4810;
5251508652214940;48.3486;23.5216;13.3712;
5251508662214940;48.3486;23.6070;13.4322;
5251508672214940;48.1534;23.5826;13.6030;
5251508682214940;47.7874;23.5094;13.8958;
5251508692214940;47.5434;23.4728;14.1520;
5251508702214940;47.3726;23.4484;14.2252;
5251508712214940;47.2750;23.3874;14.2496;
5251508722214940;47.1530;23.3508;14.2496;
5251508732214940;46.9456;23.2410;14.2984;
5251508742214940;46.6528;23.1190;14.4692;
5251508752214940;46.5552;23.0580;14.3838;
5251508762214940;46.4332;23.0092;14.3716;
5251508772214940;46.3234;22.8994;14.3472;
5251508782214940;46.2502;22.7896;14.2862;
5251508792214940;46.2136;22.7042;14.1032;
5251508802214940;46.2258;22.6188;13.9080;
5251508812214940;46.2624;22.5700;13.6884;
5251508822214940;46.4210;22.5456;13.3468;
5251508832214940;46.3600;22.4358;13.2004;
5251508842214940;46.5186;22.3992;12.8954;
5251508852214940;46.5796;22.3260;12.5538;
5251508862214940;46.5552;22.2894;12.4684;
5251508872214940;46.4820;22.2162;12.4562;
5251508882214940;46.4210;22.1430;12.3830;
5251508892214940;46.3722;22.0820;12.4196;
5251508902214940;46.2746;22.0210;12.5050;
5251508912214940;46.3112;21.9966;12.4928;
5251508922214940;46.0672;21.9234;12.7368;
5251508932214940;46.0550;21.9478;12.8588;
5251508942214940;46.0550;21.9234;12.8466;
5251508952214940;46.1892;21.9600;12.7368;
5251508962214940;46.2990;21.9478;12.6880;
5251508972214940;46.4332;22.0088;12.6026;
5251508982214940;46.5430;22.0088;12.5538;
5251508992214940;46.6650;22.0576;12.4318;
5251509002214940;46.9822;22.1064;12.1756;
5251509012214940;47.0432;22.1308;12.1390;
5251509022214940;47.1652;22.1552;12.0414;
5251509032214940;47.1164;22.1674;12.0902;
5251509042214940;47.0066;22.1918;12.2854;
5251509052214940;47.1286;22.1674;12.2610;
5251509062214940;47.2750;22.1918;12.2000;
5251509072214940;47.3970;22.1796;12.1390;
5251509082214940;47.4214;22.2040;12.1512;
5251509092214940;47.5922;22.2284;12.0536;
5251509102214940;47.6776;22.2772;12.0292;
5251509112214940;47.8484;22.3626;12.0170;
5251509122214940;47.9948;22.4114;11.9438;
5251509132214940;47.8972;22.4724;12.0780;
5251509142214940;47.6776;22.4724;12.3342;
5251509152214940;47.6288;22.5334;12.5172;
5251509162214940;47.6044;22.5456;12.6880;
5251509172214940;47.4946;22.5456;12.8954;
5251509182214940;47.3726;22.5090;13.1150;
5251509192214940;47.3360;22.4480;13.2492;
5251509202214940;47.2994;22.4480;13.3712;
5251509212214940;47.3482;22.4480;13.4444;
5251509222214940;47.4092;22.4724;13.3956;
5251509232214940;47.4580;22.5090;13.3834;
5251509242214940;47.5922;22.4968;13.2248;
5251509252214940;47.7020;22.5090;13.1272;
5251509262214940;47.9704;22.5578;12.9442;
5251509272214940;48.0558;22.5456;12.7856;
5251509282214940;48.0680;22.5456;12.7856;
5251509292214940;48.0802;22.4846;12.7978;
5251509302214940;48.1656;22.4480;12.7978;
5251509312214940;48.2022;22.3626;12.8466;
5251509322214940;48.1534;22.3260;12.9076;
5251509332214940;48.1046;22.2772;12.9808;
5251509342214940;47.9826;22.2284;13.0906;
5251509352214940;47.8972;22.2284;13.1760;
5251509362214940;47.9338;22.2284;13.2126;
5251509372214940;48.0680;22.2406;13.1272;
5251509382214940;48.1656;22.2284;13.0296;
5251509392214940;48.1900;22.3016;13.1272;
5251509402214940;48.2510;22.3504;13.1272;
5251509412214940;48.4218;22.4358;13.0662;
5251509422214940;48.8366;22.4968;12.6880;
5251509432214940;48.9952;22.6066;12.7002;
5251509442214940;49.1172;22.6554;12.5660;
5251509452214940;49.1904;22.7164;12.4928;
5251509462214940;49.3002;22.8262;12.4440;
5251509472214940;49.4466;22.8262;12.2122;
5251509482214940;49.5808;22.8750;12.1024;
5251509492214940;49.6296;22.8994;12.0536;
5251509502214940;49.3734;22.8872;12.3342;
5251509512214940;49.5320;22.8994;12.2244;
5251509522214940;49.6052;22.9482;12.2366;
5251509532214940;49.4832;22.9970;12.4196;
5251509542214940;49.3856;22.9848;12.5782;
5251509552214940;49.2636;23.0092;12.7612;
5251509562214940;49.1294;23.0214;13.0174;
5251509572214940;49.2148;23.0092;12.9930;
5251509582214940;49.3002;23.0824;12.8832;
5251509592214940;49.1294;23.0458;13.0418;
5251509602214940;49.0806;23.0458;13.1150;
5251509612214940;49.2636;23.0092;12.8344;
5251509622214940;49.5076;23.0336;12.5904;
5251509632214940;49.7394;23.0580;12.3586;
5251509642214940;49.8614;23.0336;12.2122;
5251509652214940;49.7638;22.9726;12.3342;
5251509662214940;49.6174;22.8872;12.7002;
5251509672214940;49.7150;22.8750;12.6758;
5251509682214940;49.8126;22.8384;12.6880;
5251509692214940;49.7150;22.7652;12.9686;
5251509702214940;49.4466;22.6676;13.3346;
5251509712214940;49.4100;22.5090;13.4200;
5251509722214940;49.4222;22.4602;13.4810;
5251509732214940;49.3978;22.3748;13.6518;
5251509742214940;49.4466;22.2650;13.6030;
5251509752214940;49.4710;22.0820;13.6396;
5251509762214940;49.5198;21.9478;13.6274;
5251509772214940;49.5564;21.8258;13.6518;
5251509782214940;49.6296;21.7038;13.6762;
5251509792214940;49.3856;21.5940;14.0178;
5251509802214940;49.2148;21.4476;14.3228;
5251509812214940;49.1538;21.3378;14.4448;
5251509822214940;49.0684;21.2280;14.5424;
5251509832214940;48.9952;21.1670;14.6400;
5251509842214940;48.8366;21.0816;14.8108;
5251509852214940;48.8854;21.0450;14.7620;
5251509862214940;49.0684;20.9962;14.6034;
5251509872214940;49.2148;21.0084;14.5302;
5251509882214940;49.3124;21.0450;14.4570;
5251509892214940;49.4588;21.0328;14.2862;
5251509902214940;49.6906;21.0816;14.1398;
5251509912214940;49.7760;21.1304;14.1398;
5251509922214940;50.0200;21.1182;13.9690;
5251509932214940;50.1786;21.1914;13.9202;
5251509942214940;50.1908;21.2646;13.9812;
5251509952214940;50.3250;21.2768;13.9080;
5251509962214940;50.4226;21.3378;13.9202;
5251509972214940;50.4348;21.4476;14.0056;
5251509982214940;50.3738;21.5330;14.2252;
5251509992214940;50.3372;21.6184;14.3228;
5251510002214940;50.1908;21.7526;14.5302;
5251510012214940;50.0078;21.7770;14.8718;
5251510022214940;49.8492;21.8380;15.1768;
5251510032214940;49.7394;21.9356;15.4940;
5251510042214940;49.6418;21.9600;15.7014;
5251510052214940;49.5076;21.9600;15.8966;
5251510062214940;49.4710;21.9722;16.0186;
5251510072214940;49.4100;21.9478;16.2382;
5251510082214940;49.2758;21.8746;16.5188;
5251510092214940;49.1782;21.8746;16.7506;
5251510102214940;48.9586;21.8502;16.9092;
5251510112214940;48.8976;21.8014;17.0190;
5251510122214940;48.8366;21.7770;17.0312;
5251510132214940;48.8000;21.7770;17.0556;
5251510142214940;48.7390;21.7648;17.0556;
5251510152214940;48.6902;21.7526;17.0556;
5251510162214940;48.8244;21.7770;16.8848;
5251510172214940;48.7756;21.7526;16.7384;
5251510182214940;49.0440;21.7892;16.4090;
5251510192214940;49.1050;21.7282;16.2138;
5251510202214940;49.1538;21.7038;16.1162;
5251510212214940;49.2758;21.6672;16.0674;
5251510222214940;49.3490;21.5818;15.9942;
5251510232214940;49.4344;21.5574;15.8844;
5251510242214940;49.4710;21.5330;15.7624;
5251510252214940;49.6296;21.4720;15.6038;
5251510262214940;49.6540;21.3988;15.6648;
5251510272214940;49.7150;21.3988;15.5672;
5251510282214940;49.8370;21.3744;15.3964;
5251510292214940;50.0078;21.3500;15.1646;
5251510302214940;50.1542;21.3378;14.8718;
5251510312214940;50.3006;21.3622;14.6400;
5251510322214940;50.3982;21.3500;14.5180;
5251510332214940;50.5202;21.3744;14.2984;
5251510342214940;50.5446;21.3744;14.1398;
5251510352214940;50.5324;21.3256;13.9202;
5251510362214940;50.6056;21.3500;13.7738;
5251510372214940;50.6178;21.4354;13.5664;
5251510382214940;50.5934;21.4964;13.5786;
5251510392214940;50.5446;21.5086;13.6152;
5251510402214940;50.4592;21.5574;13.5786;
5251510412214940;50.3494;21.6550;13.6152;
5251510422214940;50.2762;21.7160;13.6152;
5251510432214940;50.2152;21.8014;13.7494;
5251510442214940;49.9590;21.8502;14.0178;
5251510452214940;49.7394;21.8624;14.2008;
5251510462214940;49.5198;21.9356;14.4082;
5251510472214940;49.4466;22.0088;14.4082;
5251510482214940;49.4588;22.0576;14.3838;
5251510492214940;49.4954;22.1064;14.3960;
5251510502214940;49.6174;22.1918;14.2618;
5251510512214940;49.7028;22.2650;14.1276;
5251510522214940;49.7516;22.3382;14.0300;
5251510532214940;49.7516;22.3992;14.0788;
5251510542214940;49.6662;22.4236;14.0788;
5251510552214940;49.7150;22.4358;14.0056;
5251510562214940;49.6296;22.4968;14.1276;
5251510572214940;49.5198;22.5212;14.1276;
5251510582214940;49.4344;22.5944;14.2130;
5251510592214940;49.2880;22.6554;14.3716;
5251510602214940;49.3490;22.7042;14.2618;
5251510612214940;49.3856;22.7530;14.1642;
5251510622214940;49.5442;22.7896;13.9690;
5251510632214940;49.5198;22.8750;13.8958;
5251510642214940;49.5686;22.8994;13.6274;
5251510652214940;49.6418;22.9482;13.6030;
5251510662214940;49.6784;22.9116;13.5298;
5251510672214940;49.7028;22.9360;13.4200;
5251510682214940;49.7028;22.9360;13.3468;
5251510692214940;49.6906;22.9604;13.2492;
5251510702214940;49.7272;23.0214;13.1760;
5251510712214940;49.8004;23.0214;13.1394;
5251510722214940;49.8248;23.0458;13.1760;
5251510732214940;49.8370;23.0702;13.0906;
5251510742214940;49.7760;23.1556;13.1150;
5251510752214940;49.7516;23.1556;13.1516;
5251510762214940;49.7394;23.1678;13.1516;
5251510772214940;49.6296;23.1556;13.3590;
5251510782214940;49.4710;23.1434;13.6030;
5251510792214940;49.2514;23.1556;13.8958;
5251510802214940;49.0806;23.1312;14.1276;
5251510812214940;48.8854;23.0458;14.3472;
5251510822214940;48.8000;22.9482;14.4204;
5251510832214940;48.8488;22.9360;14.3472;
5251510842214940;48.7512;22.9238;14.5180;
5251510852214940;48.7634;22.8994;14.4692;
5251510862214940;48.8854;22.8750;14.3350;
5251510872214940;48.9098;22.8140;14.2130;
5251510882214940;48.9220;22.7896;14.1886;
5251510892214940;49.0806;22.8018;14.1154;
5251510902214940;49.0928;22.8140;14.0544;
5251510912214940;49.0440;22.8018;14.2008;
5251510922214940;49.0196;22.7286;14.1886;
5251510932214940;48.9586;22.7164;14.3716;
5251510942214940;48.9220;22.7286;14.4204;
5251510952214940;48.9098;22.7042;14.4692;
5251510962214940;49.0196;22.7164;14.4082;
5251510972214940;49.0928;22.7164;14.1520;
5251510982214940;49.2392;22.7530;14.0422;
5251510992214940;49.3612;22.7408;13.8592;
5251511002214940;49.5198;22.8262;13.7128;
5251511012214940;49.6540;22.8506;13.4322;
5251511022214940;49.6662;22.8506;13.4078;
5251511032214940;49.7394;22.8872;13.3956;
5251511042214940;49.7882;22.9238;13.3956;
5251511052214940;49.7150;22.9116;13.5420;
5251511062214940;49.6418;22.9116;13.7250;
5251511072214940;49.5686;22.9482;13.9446;
5251511082214940;49.4832;22.9482;14.0666;
5251511092214940;49.5198;22.9970;14.1642;
5251511102214940;49.5320;23.0946;14.1764;
5251511112214940;49.5564;23.1434;14.1642;
5251511122214940;49.5442;23.2166;14.1032;
5251511132214940;49.4710;23.3142;14.2862;
5251511142214940;49.3612;23.3874;14.3716;
5251511152214940;49.3246;23.4606;14.3106;
5251511162214940;49.4344;23.5826;14.2008;
5251511172214940;49.3368;23.6558;14.2008;
5251511182214940;49.3002;23.7046;14.2130;
5251511192214940;49.2758;23.7900;14.1764;
5251511202214940;49.2148;23.7778;14.1886;
5251511212214940;49.5198;23.8754;13.7860;
5251511222214940;49.7882;23.9242;13.3956;
5251511232214940;49.9224;23.9608;13.1028;
5251511242214940;49.7638;23.9608;13.1394;
5251511252214940;49.7516;23.9608;13.0906;
5251511262214940;49.7760;23.9608;13.0296;
5251511272214940;49.8248;23.9486;12.9198;
5251511282214940;49.8858;23.9974;12.8222;
5251511292214940;49.6418;23.8998;13.0418;
5251511302214940;49.4100;23.8632;13.2980;
5251511312214940;49.4466;23.7534;13.2980;
5251511322214940;49.6174;23.6924;13.0662;
5251511332214940;49.7638;23.6070;12.7856;
5251511342214940;49.9102;23.4850;12.4684;
5251511352214940;49.9346;23.3874;12.4196;
5251511362214940;49.8370;23.2654;12.5294;
5251511372214940;49.8126;23.1800;12.5172;
5251511382214940;49.7882;23.1190;12.4562;
5251511392214940;49.5930;23.0458;12.7490;
5251511402214940;49.3612;22.9970;13.0540;
5251511412214940;49.3368;22.9238;13.2004;
5251511422214940;49.3368;22.8994;13.2736;
5251511432214940;49.3978;22.8994;13.2858;
5251511442214940;49.5320;22.9116;13.1272;
5251511452214940;49.4954;22.9238;13.2004;
5251511462214940;49.5808;22.9238;13.2126;
5251511472214940;49.6174;22.9360;13.0906;
5251511482214940;49.7272;22.9604;13.0540;
5251511492214940;49.5930;22.9848;13.2858;
5251511502214940;49.5442;23.0092;13.3346;
5251511512214940;49.5686;23.0092;13.2370;
5251511522214940;49.6418;23.0092;13.1638;
5251511532214940;49.9102;23.0702;12.9198;
5251511542214940;50.0078;23.0946;12.7124;
5251511552214940;50.0810;23.1068;12.5294;
5251511562214940;50.0688;23.1068;12.4684;
5251511572214940;50.1176;23.1434;12.3342;
5251511582214940;50.0688;23.1556;12.3586;
5251511592214940;49.9224;23.2044;12.5294;
5251511602214940;49.7882;23.2166;12.5782;
5251511612214940;49.6174;23.2410;12.6758;
5251511622214940;49.4222;23.3142;12.8588;
5251511632214940;49.3612;23.3874;12.9564;
5251511642214940;49.3734;23.4850;12.9076;
5251511652214940;49.3490;23.5460;12.8710;
5251511662214940;49.3368;23.6558;12.8832;
5251511672214940;49.2270;23.7168;12.8832;
5251511682214940;49.0928;23.7656;12.9076;
5251511692214940;48.9586;23.8144;13.0052;
5251511702214940;48.9098;23.8266;12.9686;
5251511712214940;48.9220;23.8510;12.8588;
5251511722214940;48.8854;23.8144;12.7368;
5251511732214940;48.8854;23.8510;12.5172;
5251511742214940;48.8366;23.8388;12.4196;
5251511752214940;48.8976;23.8876;12.2488;
5251511762214940;49.0440;23.9730;12.0536;
5251511772214940;49.1538;23.9974;11.6754;
5251511782214940;49.2514;24.1072;11.3826;
5251511792214940;49.2880;24.2048;11.3094;
5251511802214940;49.3490;24.3146;11.1020;
5251511812214940;49.3368;24.4610;11.0654;
5251511822214940;49.3856;24.5464;10.8702;
5251511832214940;49.3978;24.5830;10.7604;
5251511842214940;49.3978;24.6806;10.6628;
5251511852214940;49.4222;24.7904;10.6262;
5251511862214940;49.5198;24.7904;10.4798;
5251511872214940;49.6418;24.8270;10.2358;
5251511882214940;49.7638;24.8636;10.1016;
5251511892214940;49.9712;24.8758;9.8820;
5251511902214940;50.1054;24.9124;9.6990;
5251511912214940;50.3738;24.9856;9.3330;
5251511922214940;50.6300;24.9978;8.9914;
5251511932214940;50.9228;25.0100;8.6010;
5251511942214940;51.1912;25.1198;8.3204;
5251511952214940;51.2766;25.1930;8.1496;
5251511962214940;51.3498;25.2784;8.0886;
5251511972214940;51.4474;25.3394;7.9300;
5251511982214940;51.5084;25.4614;7.8690;
5251511992214940;51.4352;25.5590;7.9422;
5251512002214940;51.4352;25.6810;7.8812;
5251512012214940;51.4108;25.8274;7.9544;
5251512022214940;51.3864;25.9372;7.9056;
5251512032214940;51.4718;26.0104;7.7470;
5251512042214940;51.6060;26.1568;7.5274;
5251512052214940;51.6426;26.3154;7.4054;
5251512062214940;51.8988;26.4496;7.0028;
5251512072214940;52.2038;26.5960;6.6124;
5251512082214940;52.4356;26.7912;6.2830;
5251512092214940;52.7040;26.9742;6.0024;
5251512102214940;52.7528;27.1938;5.8560;
5251512112214940;52.7650;27.4378;5.8316;
5251512122214940;52.6552;27.6574;5.9536;
5251512132214940;52.5820;27.9014;6.0146;
5251512142214940;52.3624;28.1698;6.1610;
5251512152214940;52.1550;28.4992;6.3684;
5251512162214940;51.8500;28.8652;6.7222;
5251512172214940;51.5328;29.2190;6.8930;
5251512182214940;51.5084;29.5606;6.9418;
5251512192214940;51.4840;29.9266;6.9174;
5251512202214940;51.5816;30.4024;6.6978;
5251512212214940;51.6426;30.8904;6.5392;
5251512222214940;51.7402;31.3662;6.4172;
5251512232214940;51.9110;31.8908;6.1366;
5251512242214940;52.1550;32.3178;5.7584;
5251512252214940;52.3380;32.9278;5.5876;
5251512262214940;52.5332;33.6110;5.3558;
5251512272214940;52.6918;34.3064;5.2094;
5251512282214940;52.8260;34.9408;5.1240;
5251512292214940;53.0578;35.7094;4.9776;
5251512302214940;53.0334;36.4902;5.0752;
5251512312214940;52.9114;37.2344;5.4046;
5251512322214940;52.8504;38.0396;5.7096;
5251512332214940;52.6308;38.7472;6.1122;
5251512342214940;52.3868;39.5402;6.5880;
5251512352214940;52.1184;40.3454;7.0760;
5251512362214940;51.8134;41.1750;7.7104;
5251512372214940;51.4230;41.8460;8.3936;
5251512382214940;51.1790;42.5414;9.0158;
5251512392214940;50.9106;43.2490;9.6868;
5251512402214940;50.4104;43.9688;10.6994;
5251512412214940;50.2030;44.6642;11.5534;
5251512422214940;49.7882;45.2010;12.4562;
5251512432214940;49.3612;45.7134;13.5420;
5251512442214940;48.9220;46.1160;14.6034;
5251512452214940;48.3486;46.4576;15.8966;
5251512462214940;47.7508;46.6894;17.2630;
5251512472214940;47.1774;46.7504;18.5074;
5251512482214940;46.6284;46.6162;19.7030;
5251512492214940;46.1648;46.4088;20.8254;
5251512502214940;45.6646;46.0672;22.0210;
5251512512214940;45.2376;45.6036;23.0824;
5251512522214940;44.7130;45.0180;24.1194;
5251512532214940;44.2616;44.2616;25.1442;
5251512542214940;43.8224;43.3954;26.1324;
5251512552214940;43.3466;42.4682;27.0596;
5251512562214940;43.0050;41.5532;27.8892;
5251512572214940;42.4560;40.5284;28.6212;
5251512582214940;42.1022;39.2962;29.3532;
5251512592214940;41.6996;37.9542;29.9998;
5251512602214940;41.3336;36.5878;30.6220;
5251512612214940;41.0774;35.3434;30.9636;
5251512622214940;40.8578;33.9160;31.2442;
5251512632214940;40.6016;32.4154;31.5614;
5251512642214940;40.2844;30.8660;31.8298;
5251512652214940;39.9306;29.3166;32.2690;
5251512662214940;39.5768;27.8770;32.6716;
5251512672214940;39.3084;26.3398;32.9278;
5251512682214940;39.0522;24.7782;33.0498;
5251512692214940;38.7594;23.1556;33.2694;
5251512702214940;38.4666;21.7038;33.3792;
5251512712214940;38.3812;20.2886;33.2938;
5251512722214940;38.3202;18.6660;33.1352;
5251512732214940;38.2836;17.0678;32.8302;
5251512742214940;38.2470;15.5550;32.4276;
5251512752214940;38.0640;14.1886;32.1470;
5251512762214940;38.0396;12.8466;31.8298;
5251512772214940;37.9786;11.4680;31.3296;
5251512782214940;37.8566;10.0894;30.8538;
5251512792214940;37.7102;8.7840;30.3780;
5251512802214940;37.4662;7.7348;29.9876;
5251512812214940;37.3076;6.5026;29.5118;
5251512822214940;37.2100;5.2948;28.9262;
5251512832214940;37.2344;4.0626;28.1210;
5251512842214940;37.3930;2.8792;27.1084;
5251512852214940;37.6248;1.8422;26.1568;
5251512862214940;37.9298;0.7564;24.9490;
5251512872214940;38.2470;-0.2318;23.7046;
5251512882214940;38.6740;-1.1102;22.3870;
5251512892214940;39.0888;-1.7202;21.0938;
5251512902214940;39.3938;-2.2082;19.9104;
5251512912214940;39.6866;-2.5498;18.7758;
5251512922214940;39.9184;-2.7450;17.7632;
5251512932214940;40.2966;-2.8426;16.6164;
5251512942214940;40.6748;-2.7450;15.6038;
5251512952214940;41.1506;-2.5498;14.4326;
5251512962214940;41.4922;-2.3424;13.4810;
5251512972214940;41.8460;-2.0496;12.5782;
5251512982214940;42.2120;-1.7934;11.6266;
5251512992214940;42.6512;-1.4762;10.6140;
5251513002214940;43.1392;-1.0736;9.5526;
5251513012214940;43.3954;-0.6832;8.7718;
5251513022214940;43.7614;-0.2318;7.9544;
5251513032214940;43.9444;0.1830;7.5030;
5251513042214940;44.3958;0.6588;6.6978;
5251513052214940;44.9814;1.2078;5.8804;
5251513062214940;45.5548;1.8910;5.1484;
5251513072214940;46.0428;2.5620;4.5750;
5251513082214940;46.4454;3.2208;4.1846;
5251513092214940;46.8480;3.9284;3.8796;
5251513102214940;47.1652;4.6482;3.7088;
5251513112214940;47.5556;5.4046;3.5014;
5251513122214940;47.7630;6.1732;3.5502;
5251513132214940;47.7264;6.8320;3.8552;
5251513142214940;47.7020;7.4420;4.2700;
5251513152214940;47.7020;8.1252;4.6360;
5251513162214940;47.6898;8.7596;5.0874;
5251513172214940;47.9216;9.3208;5.2704;
5251513182214940;48.0558;9.9186;5.5144;
5251513192214940;48.0924;10.4676;5.8072;
5251513202214940;48.1778;11.0532;6.0634;
5251513212214940;48.2754;11.6510;6.2220;
5251513222214940;48.4218;12.1878;6.1610;
5251513232214940;48.5194;12.7002;6.2708;
5251513242214940;48.5072;13.2858;6.3928;
5251513252214940;48.2510;13.8836;6.7344;
5251513262214940;48.0924;14.4692;7.0272;
5251513272214940;47.9704;15.0060;7.2590;
5251513282214940;47.7386;15.5794;7.4786;
5251513292214940;47.5800;16.1284;7.7104;
5251513302214940;47.4458;16.6896;7.9056;
5251513312214940;47.2994;17.2142;8.1130;
5251513322214940;47.0920;17.6534;8.2838;
5251513332214940;47.0432;18.0438;8.2106;
5251513342214940;46.9090;18.3610;8.1740;
5251513352214940;46.7870;18.7270;8.1862;
5251513362214940;46.7992;18.9344;8.2106;
5251513372214940;46.7870;19.1296;8.1374;
5251513382214940;46.8114;19.3370;8.1618;
5251513392214940;46.8358;19.4590;8.1252;
5251513402214940;47.0066;19.5322;8.0520;
5251513412214940;47.1164;19.6176;8.2106;
5251513422214940;47.2506;19.6298;8.3448;
5251513432214940;47.3726;19.6054;8.3814;
5251513442214940;47.4092;19.5444;8.5278;
5251513452214940;47.4214;19.4468;8.6742;
5251513462214940;47.4336;19.2882;8.8694;
5251513472214940;47.5068;19.1662;9.0646;
5251513482214940;47.4702;19.0076;9.3330;
5251513492214940;47.6166;18.8490;9.3574;
5251513502214940;47.6044;18.7270;9.5282;
5251513512214940;47.6654;18.5928;9.6868;
5251513522214940;47.8118;18.5196;9.7600;
5251513532214940;47.9460;18.4464;9.8576;
5251513542214940;47.9704;18.3976;9.9186;
5251513552214940;47.9704;18.4098;9.9918;
5251513562214940;47.9460;18.4586;10.1260;
5251513572214940;47.7874;18.5196;10.4310;
5251513582214940;47.7874;18.6172;10.6384;
5251513592214940;47.7020;18.7270;10.8458;
5251513602214940;47.6898;18.8734;11.0288;
5251513612214940;47.7264;19.0808;11.1142;
5251513622214940;47.7996;19.3248;11.2972;
5251513632214940;47.8972;19.5566;11.3460;
5251513642214940;48.0802;19.8250;11.2972;
5251513652214940;48.1290;20.0446;11.3582;
5251513662214940;48.1290;20.3496;11.3582;
5251513672214940;48.1656;20.6546;11.4924;
5251513682214940;48.0558;20.9596;11.6266;
5251513692214940;47.9460;21.2402;11.8096;
5251513702214940;47.8118;21.5086;11.9804;
5251513712214940;47.7630;21.8136;12.0780;
5251513722214940;47.7142;22.0698;12.1756;
5251513732214940;47.7264;22.3626;12.1268;
5251513742214940;47.8728;22.5578;12.0536;
5251513752214940;47.9094;22.7896;12.0292;
5251513762214940;47.9460;22.9848;12.0658;
5251513772214940;47.9216;23.1434;12.1268;
5251513782214940;47.9582;23.2532;12.1634;
5251513792214940;47.9216;23.3630;12.2732;
5251513802214940;47.9460;23.4240;12.3220;
5251513812214940;47.9826;23.4972;12.3952;
5251513822214940;47.7874;23.5094;12.6270;
5251513832214940;47.6898;23.5216;12.8222;
5251513842214940;47.6044;23.4972;12.9564;
5251513852214940;47.5922;23.4850;13.0296;
5251513862214940;47.5434;23.4728;13.1760;
5251513872214940;47.5922;23.4484;13.2004;
5251513882214940;47.5922;23.4362;13.2980;
5251513892214940;47.6410;23.3996;13.4078;
5251513902214940;47.8728;23.4118;13.2614;
5251513912214940;47.9948;23.3996;13.2370;
5251513922214940;48.1900;23.3508;13.1882;
5251513932214940;48.4096;23.3630;13.0662;
5251513942214940;48.6902;23.3752;12.7490;
5251513952214940;48.7756;23.3508;12.7246;
5251513962214940;48.9586;23.3630;12.6148;
5251513972214940;49.1660;23.3508;12.4318;
5251513982214940;49.3124;23.3752;12.2854;
5251513992214940;49.5076;23.3630;11.9804;
5251514002214940;49.6540;23.3752;11.6876;
5251514012214940;49.8004;23.3508;11.5656;
5251514022214940;49.8736;23.3386;11.4558;
5251514032214940;50.0444;23.3996;11.3216;
5251514042214940;50.1176;23.3630;11.2362;
5251514052214940;50.0566;23.3386;11.1996;
5251514062214940;50.1420;23.3020;11.2118;
5251514072214940;50.1664;23.2776;11.2606;
5251514082214940;50.1786;23.2776;11.3460;
5251514092214940;50.1420;23.2532;11.3704;
5251514102214940;50.2274;23.2410;11.3460;
5251514112214940;50.1664;23.1556;11.4558;
5251514122214940;50.0810;23.1190;11.5290;
5251514132214940;50.0078;23.0824;11.7974;
5251514142214940;49.8248;23.0336;12.0414;
5251514152214940;49.7272;22.9726;12.1390;
5251514162214940;49.7882;22.9848;12.2000;
5251514172214940;49.7516;22.9482;12.2610;
5251514182214940;49.6052;22.9238;12.4562;
5251514192214940;49.5076;22.9238;12.6026;
5251514202214940;49.3856;22.9238;12.7490;
5251514212214940;49.4832;22.9726;12.6636;
5251514222214940;49.5564;23.0092;12.6026;
5251514232214940;49.5808;23.0702;12.6270;
5251514242214940;49.5442;23.0580;12.6514;
5251514252214940;49.5442;23.0702;12.5904;
5251514262214940;49.5564;23.0946;12.7246;
5251514272214940;49.5808;23.0824;12.7368;
5251514282214940;49.6784;23.0946;12.7002;
5251514292214940;49.6540;23.0702;12.7246;
5251514302214940;49.5442;23.0580;12.7246;
5251514312214940;49.5198;23.0702;12.7856;
5251514322214940;49.2880;23.0702;13.0418;
5251514332214940;49.2026;23.1190;13.2492;
5251514342214940;49.0684;23.0946;13.2858;
5251514352214940;48.8732;23.0824;13.2736;
5251514362214940;48.8854;23.0702;13.2126;
5251514372214940;48.7390;23.0946;13.2980;
5251514382214940;48.7024;23.1190;13.3712;
5251514392214940;48.5804;23.1068;13.4078;
5251514402214940;48.5072;23.0580;13.3834;
5251514412214940;48.2876;23.0214;13.5298;
5251514422214940;48.2632;23.0702;13.5664;
5251514432214940;48.2754;23.1800;13.6396;
5251514442214940;48.0314;23.2288;13.8714;
5251514452214940;47.9582;23.2532;13.8592;
5251514462214940;47.9094;23.2654;13.9080;
5251514472214940;47.9216;23.3020;13.9080;
5251514482214940;48.0802;23.4118;13.5786;
5251514492214940;48.3852;23.4972;13.2248;
5251514502214940;48.5194;23.5826;12.9808;
5251514512214940;48.5194;23.6558;12.9076;
5251514522214940;48.5316;23.7412;12.8100;
5251514532214940;48.4584;23.8022;12.8344;
5251514542214940;48.4828;23.8510;12.7612;
5251514552214940;48.3974;23.9242;12.7734;
5251514562214940;48.4462;24.0218;12.7246;
5251514572214940;48.4096;24.1316;12.7002;
5251514582214940;48.4584;24.1560;12.5904;
5251514592214940;48.5804;24.1926;12.4440;
5251514602214940;48.7024;24.2170;12.2366;
5251514612214940;48.8244;24.2658;12.0658;
5251514622214940;48.8122;24.3024;12.0048;
5251514632214940;48.7878;24.2902;11.9926;
5251514642214940;48.6658;24.2658;12.1512;
5251514652214940;48.4218;24.1926;12.5538;
5251514662214940;48.0192;24.1682;13.0662;
5251514672214940;47.7264;24.1194;13.5054;
5251514682214940;47.4580;24.0462;13.9202;
5251514692214940;47.1774;23.9486;14.3594;
5251514702214940;46.8480;23.8144;14.7986;
5251514712214940;46.7748;23.6802;14.9938;
5251514722214940;46.5918;23.4850;15.2744;
5251514732214940;46.4820;23.2776;15.3476;
5251514742214940;46.5430;23.0092;15.3842;
5251514752214940;46.4820;22.6798;15.4330;
5251514762214940;46.4820;22.4114;15.4452;
5251514772214940;46.4210;22.1186;15.4330;
5251514782214940;46.4820;21.8868;15.4452;
5251514792214940;46.4088;21.6306;15.5428;
5251514802214940;46.2624;21.3256;15.5794;
5251514812214940;46.1160;21.0816;15.7136;
5251514822214940;45.9208;20.8498;15.7990;
5251514832214940;45.7988;20.5814;15.7990;
5251514842214940;45.6524;20.3008;15.8478;
5251514852214940;45.6158;20.0324;15.7258;
5251514862214940;45.5670;19.8006;15.6282;
5251514872214940;45.4328;19.5688;15.5672;
5251514882214940;45.2864;19.3492;15.6160;
5251514892214940;45.2132;19.0808;15.5550;
5251514902214940;45.2742;18.8612;15.3232;
5251514912214940;45.3474;18.7270;15.1646;
5251514922214940;45.3718;18.5806;14.9572;
5251514932214940;45.2620;18.4098;15.0182;
5251514942214940;45.1766;18.2268;14.9816;
5251514952214940;45.2010;18.0804;14.8596;
5251514962214940;45.2986;17.9706;14.8108;
5251514972214940;45.3108;17.8852;14.6888;
5251514982214940;45.2254;17.7754;14.7498;
5251514992214940;45.1278;17.6534;14.7986;
5251515002214940;45.0424;17.5436;14.9084;
5251515012214940;45.0668;17.4582;14.8352;
5251515022214940;45.2376;17.4094;14.6278;
5251515032214940;45.2986;17.3240;14.4936;
5251515042214940;45.4206;17.2508;14.2618;
5251515052214940;45.6524;17.1898;13.9446;
5251515062214940;45.7866;17.1044;13.7616;
5251515072214940;45.8842;17.0678;13.6884;
5251515082214940;46.0306;16.9580;13.5054;
5251515092214940;46.2136;16.8970;13.3590;
5251515102214940;46.1648;16.7872;13.3224;
5251515112214940;46.1038;16.6774;13.3712;
5251515122214940;46.0550;16.5188;13.3834;
5251515132214940;45.9330;16.3358;13.4932;
5251515142214940;45.8232;16.1894;13.5298;
5251515152214940;45.7622;16.0064;13.5176;
5251515162214940;45.7500;15.8600;13.3468;
5251515172214940;45.7256;15.6648;13.2736;
5251515182214940;45.6524;15.4452;13.2736;
5251515192214940;45.6524;15.2378;13.1516;
5251515202214940;45.6402;15.0914;13.0418;
5251515212214940;45.6524;14.9328;12.8222;
5251515222214940;45.6890;14.7376;12.6636;
5251515232214940;45.7744;14.6400;12.3708;
5251515242214940;45.8232;14.5180;12.2488;
5251515252214940;45.9208;14.4082;11.9316;
5251515262214940;46.0794;14.3472;11.5656;
5251515272214940;46.2014;14.3228;11.2362;
5251515282214940;46.3112;14.3228;10.9922;
5251515292214940;46.5308;14.3594;10.7604;
5251515302214940;46.8114;14.4692;10.3456;
5251515312214940;46.9212;14.5424;10.0894;
5251515322214940;47.0188;14.6888;9.8454;
5251515332214940;47.0920;14.8596;9.7356;
5251515342214940;47.0554;15.0182;9.6990;
5251515352214940;47.0920;15.2500;9.5892;
5251515362214940;47.0920;15.4452;9.3696;
5251515372214940;47.0432;15.6526;9.2232;
5251515382214940;46.9090;15.8234;9.2110;
5251515392214940;46.9212;16.0186;9.1134;
5251515402214940;46.8846;16.2382;9.1134;
5251515412214940;46.7626;16.4456;9.0524;
5251515422214940;46.8114;16.6896;8.9182;
5251515432214940;46.7260;16.8482;8.9670;
5251515442214940;46.7382;17.0556;8.9426;
5251515452214940;46.7138;17.2874;8.8694;
5251515462214940;46.7138;17.5070;8.8328;
5251515472214940;46.8480;17.6900;8.6498;
5251515482214940;46.9578;17.9218;8.3814;
5251515492214940;47.1652;18.1536;8.1374;
5251515502214940;47.3482;18.3610;7.8324;
5251515512214940;47.5922;18.6782;7.4786;
5251515522214940;47.7386;19.0076;7.1614;
5251515532214940;47.8362;19.2882;6.9906;
5251515542214940;48.1168;19.6664;6.6246;
5251515552214940;48.2388;20.0202;6.3562;
5251515562214940;48.3364;20.3252;6.2342;
5251515572214940;48.4218;20.6790;6.0024;
5251515582214940;48.5316;21.0694;5.8316;
5251515592214940;48.6658;21.4476;5.6364;
5251515602214940;48.8610;21.7770;5.4412;
5251515612214940;49.0806;22.1918;5.1728;
5251515622214940;49.0074;22.4968;5.1850;
5251515632214940;49.0074;22.8506;5.1850;
5251515642214940;48.9830;23.2044;5.1484;
5251515652214940;48.9098;23.5216;5.3802;
5251515662214940;48.7024;23.8388;5.6486;
5251515672214940;48.4706;24.0828;5.8560;
5251515682214940;48.1656;24.3390;6.1854;
5251515692214940;47.9216;24.5830;6.5026;
5251515702214940;47.8118;24.9246;6.7344;
5251515712214940;47.6288;25.2174;7.0028;
5251515722214940;47.6288;25.5102;7.1370;
5251515732214940;47.6532;25.8396;7.0760;
5251515742214940;47.9094;26.1324;6.9296;
5251515752214940;48.1534;26.4130;6.8808;
5251515762214940;48.3974;26.7058;6.8808;
5251515772214940;48.5804;26.9864;6.8076;
5251515782214940;48.8976;27.2426;6.6124;
5251515792214940;49.1538;27.5232;6.5392;
5251515802214940;49.2758;27.8282;6.5636;
5251515812214940;49.4588;28.0356;6.5758;
5251515822214940;49.4344;28.3406;6.8808;
5251515832214940;49.4222;28.6578;7.1370;
5251515842214940;49.4832;28.9994;7.3444;
5251515852214940;49.5198;29.2678;7.6372;
5251515862214940;49.5198;29.5118;8.0764;
5251515872214940;49.5442;29.7802;8.4302;
5251515882214940;49.5930;30.0608;8.8450;
5251515892214940;49.6296;30.3414;9.3086;
5251515902214940;49.8126;30.5488;9.5526;
5251515912214940;49.8614;30.8050;10.0040;
5251515922214940;49.9712;30.9880;10.4554;
5251515932214940;50.1054;31.1588;10.8336;
5251515942214940;50.2030;31.3296;11.2118;
5251515952214940;50.2518;31.4150;11.6754;
5251515962214940;50.3006;31.3662;12.0902;
5251515972214940;50.3006;31.3296;12.6026;
5251515982214940;50.2396;31.2442;13.0784;
5251515992214940;50.2274;31.0734;13.5054;
5251516002214940;50.0932;30.8172;13.8470;
5251516012214940;50.0078;30.5488;14.2252;
5251516022214940;49.8492;30.1828;14.6522;
5251516032214940;49.8004;29.8168;14.9328;
5251516042214940;49.8126;29.4996;15.1158;
5251516052214940;49.8248;29.1214;15.2256;
5251516062214940;49.8248;28.7066;15.4330;
5251516072214940;49.8492;28.2918;15.5306;
5251516082214940;49.8492;27.9258;15.7258;
5251516092214940;49.8126;27.5842;15.8844;
5251516102214940;49.6906;27.2304;16.0430;
5251516112214940;49.5442;26.9132;16.2504;
5251516122214940;49.3490;26.5838;16.4578;
5251516132214940;49.1660;26.3642;16.5676;
5251516142214940;49.0684;26.0836;16.4822;
5251516152214940;49.0684;25.8640;16.3480;
5251516162214940;49.1416;25.6078;16.0796;
5251516172214940;49.1904;25.3760;15.8966;
5251516182214940;49.3612;25.1686;15.6038;
5251516192214940;49.4344;25.0222;15.3476;
5251516202214940;49.4832;24.8514;15.0426;
5251516212214940;49.5808;24.6806;14.8474;
5251516222214940;49.5442;24.5830;14.8108;
5251516232214940;49.4954;24.4732;14.5912;
5251516242214940;49.5076;24.4244;14.4570;
5251516252214940;49.4222;24.3634;14.4082;
5251516262214940;49.3368;24.3390;14.2618;
5251516272214940;49.2636;24.2048;14.2130;
5251516282214940;49.1904;24.1194;14.3106;
5251516292214940;49.0562;23.9486;14.3350;
5251516302214940;49.0074;23.8632;14.2008;
5251516312214940;48.9464;23.7534;14.2130;
5251516322214940;48.8366;23.6192;14.2496;
5251516332214940;48.7512;23.4972;14.1886;
5251516342214940;48.7024;23.3142;14.0910;
5251516352214940;48.6414;23.2410;13.9202;
5251516362214940;48.5926;23.1434;13.7250;
5251516372214940;48.5194;23.0824;13.5664;
5251516382214940;48.4096;22.9726;13.5420;
5251516392214940;48.3364;22.8872;13.5176;
5251516402214940;48.1900;22.8384;13.5054;
5251516412214940;48.0802;22.7408;13.4078;
5251516422214940;47.8362;22.6920;13.5908;
5251516432214940;47.5434;22.5700;13.6518;
5251516442214940;47.4336;22.5334;13.5298;
5251516452214940;47.3848;22.4846;13.2980;
5251516462214940;47.3360;22.4358;13.1760;
5251516472214940;47.2506;22.4114;13.0418;
5251516482214940;47.4092;22.3748;12.6758;
5251516492214940;47.5556;22.4114;12.3342;
5251516502214940;47.9338;22.3870;11.8340;
5251516512214940;48.4462;22.4236;11.4558;
5251516522214940;48.7634;22.3992;11.2728;
5251516532214940;49.0074;22.3626;11.1752;
5251516542214940;49.3002;22.3382;10.9800;
5251516552214940;49.5686;22.3016;10.8946;
5251516562214940;49.6540;22.2650;10.9800;
5251516572214940;49.7394;22.2162;11.1264;
5251516582214940;49.6174;22.1552;11.4436;
5251516592214940;49.4344;22.0942;11.7486;
5251516602214940;49.4222;22.0332;11.9194;
5251516612214940;49.4100;21.9844;12.1146;
5251516622214940;49.3002;21.9112;12.3952;
5251516632214940;49.2270;21.7892;12.5904;
5251516642214940;49.1904;21.7038;12.8466;
5251516652214940;49.1416;21.5452;13.0662;
5251516662214940;49.2880;21.4232;13.0296;
5251516672214940;49.5076;21.2890;12.9930;
5251516682214940;49.6052;21.1548;12.9808;
5251516692214940;49.6784;21.0328;13.0418;
5251516702214940;49.8614;20.8742;13.0418;
5251516712214940;49.9956;20.7766;13.0906;
5251516722214940;50.0444;20.6546;13.1272;
5251516732214940;50.1298;20.6180;13.2492;
5251516742214940;50.1176;20.5936;13.3834;
5251516752214940;50.0932;20.5448;13.4566;
5251516762214940;50.1420;20.5448;13.5420;
5251516772214940;50.1420;20.5326;13.6518;
5251516782214940;50.1542;20.6058;13.7250;
5251516792214940;50.2640;20.6790;13.6030;
5251516802214940;50.4226;20.7278;13.4078;
5251516812214940;50.4836;20.7644;13.3102;
5251516822214940;50.6056;20.8376;13.2370;
5251516832214940;50.6788;20.9108;13.2248;
5251516842214940;50.5568;20.9962;13.3712;
5251516852214940;50.5812;21.0816;13.3346;
5251516862214940;50.5324;21.1304;13.3956;
5251516872214940;50.3372;21.1914;13.6152;
5251516882214940;50.2274;21.3256;13.8104;
5251516892214940;50.1420;21.4232;13.9324;
5251516902214940;50.0932;21.5208;13.9690;
5251516912214940;50.0688;21.6550;13.8226;
5251516922214940;50.1542;21.7648;13.6884;
5251516932214940;50.0688;21.8868;13.6884;
5251516942214940;50.0810;22.0210;13.5664;
5251516952214940;50.3494;22.1308;13.2248;
5251516962214940;50.3982;22.2406;13.0174;
5251516972214940;50.4348;22.3138;12.8588;
5251516982214940;50.3372;22.3870;12.9442;
5251516992214940;50.1908;22.4358;13.1760;
5251517002214940;50.0810;22.4358;13.1760;
5251517012214940;50.1542;22.4724;13.0052;
5251517022214940;50.1908;22.4968;12.8466;
5251517032214940;50.0688;22.5578;12.7612;
5251517042214940;50.1176;22.5456;12.6880;
5251517052214940;50.2030;22.5700;12.5782;
5251517062214940;50.3494;22.5456;12.3098;
5251517072214940;50.4226;22.5212;12.2122;
5251517082214940;50.4836;22.5090;12.2122;
5251517092214940;50.6422;22.5090;12.1146;
5251517102214940;50.7276;22.4358;12.0658;
5251517112214940;50.6544;22.3504;12.3098;
5251517122214940;50.7032;22.3138;12.2976;
5251517132214940;50.6666;22.2162;12.3464;
5251517142214940;50.6666;22.1674;12.4196;
5251517152214940;50.7398;22.0942;12.2976;
5251517162214940;50.7886;22.0210;12.2122;
5251517172214940;50.7642;21.9112;12.3098;
5251517182214940;50.6422;21.8502;12.5538;
5251517192214940;50.6910;21.7282;12.5660;
5251517202214940;50.6056;21.6184;12.7124;
5251517212214940;50.7276;21.5330;12.6880;
5251517222214940;50.7886;21.4476;12.6514;
5251517232214940;50.7642;21.3500;12.7856;
5251517242214940;50.7764;21.2890;12.8344;
5251517252214940;50.6666;21.2158;13.0174;
5251517262214940;50.7154;21.1670;13.0052;
5251517272214940;50.7276;21.1182;13.0418;
5251517282214940;50.8374;21.0572;13.0418;
5251517292214940;50.9472;21.0206;12.9686;
5251517302214940;51.0936;20.9962;12.8466;
5251517312214940;51.3010;20.9962;12.6880;
5251517322214940;51.4962;20.9718;12.3952;
5251517332214940;51.7158;20.9230;12.1268;
5251517342214940;51.9232;20.8864;11.8462;
5251517352214940;52.0574;20.8620;11.6388;
5251517362214940;52.1062;20.8376;11.5900;
5251517372214940;52.0818;20.8132;11.5778;
5251517382214940;51.9964;20.7766;11.7120;
5251517392214940;51.8012;20.7034;11.9682;
5251517402214940;51.6426;20.6790;12.3220;
5251517412214940;51.6670;20.6912;12.3830;
5251517422214940;51.7280;20.6912;12.3586;
5251517432214940;51.7402;20.6668;12.4196;
5251517442214940;51.7402;20.6668;12.4928;
5251517452214940;51.6670;20.6912;12.6270;
5251517462214940;51.7402;20.7034;12.5050;
5251517472214940;52.0086;20.7522;12.2122;
5251517482214940;52.2038;20.7278;11.9804;
5251517492214940;52.2404;20.7278;11.9438;
5251517502214940;52.2038;20.7400;11.9682;
5251517512214940;52.3136;20.7522;11.8340;
5251517522214940;52.3990;20.7644;11.6876;
5251517532214940;52.4722;20.7400;11.5778;
5251517542214940;52.5820;20.7034;11.5046;
5251517552214940;52.6308;20.6912;11.3948;
5251517562214940;52.5942;20.6790;11.3704;
5251517572214940;52.6674;20.6668;11.2850;
5251517582214940;52.7406;20.6546;11.2362;
5251517592214940;52.7650;20.6668;11.2362;
5251517602214940;52.6552;20.6058;11.3704;
5251517612214940;52.6552;20.6180;11.4314;
5251517622214940;52.4722;20.5936;11.6388;
5251517632214940;52.2038;20.5570;11.9560;
5251517642214940;52.1306;20.5570;12.1756;
5251517652214940;51.9598;20.5692;12.3830;
5251517662214940;51.7768;20.4838;12.6514;
5251517672214940;51.6060;20.4106;12.9442;
5251517682214940;51.6670;20.3984;12.9198;
5251517692214940;51.6060;20.3496;13.0052;
5251517702214940;51.6182;20.3496;13.0540;
5251517712214940;51.5816;20.3496;13.1638;
5251517722214940;51.5328;20.3374;13.2492;
5251517732214940;51.3864;20.2642;13.5054;
5251517742214940;51.2156;20.2642;13.7494;
5251517752214940;51.1790;20.2764;13.7860;
5251517762214940;51.0936;20.2520;13.9080;
5251517772214940;50.9716;20.1910;14.0666;
5251517782214940;50.8984;20.1300;14.1032;
5251517792214940;50.9594;20.0812;14.1032;
5251517802214940;50.9960;20.0080;14.0300;
5251517812214940;51.1180;19.9958;13.8348;
5251517822214940;51.3620;19.9836;13.5542;
5251517832214940;51.3864;19.9592;13.4688;
5251517842214940;51.4474;19.9104;13.4200;
5251517852214940;51.5328;19.9226;13.3468;
5251517862214940;51.5694;19.8982;13.3712;
5251517872214940;51.6304;19.8372;13.3712;
5251517882214940;51.6426;19.8738;13.4444;
5251517892214940;51.5450;19.8128;13.6396;
5251517902214940;51.3986;19.8006;13.8592;
5251517912214940;51.2888;19.7396;14.1520;
5251517922214940;51.1790;19.7396;14.3106;
5251517932214940;51.1668;19.7518;14.4082;
5251517942214940;51.1790;19.7640;14.4814;
5251517952214940;51.0936;19.8128;14.5790;
5251517962214940;51.1424;19.8006;14.5058;
5251517972214940;51.2766;19.8860;14.3838;
5251517982214940;51.4230;19.9104;14.2374;
5251517992214940;51.5816;20.0080;13.9202;
5251518002214940;51.7280;20.0568;13.6884;
5251518012214940;51.7646;20.0934;13.5908;
5251518022214940;51.7402;20.1544;13.5054;
5251518032214940;51.9354;20.2276;13.1516;
5251518042214940;51.8134;20.2764;13.1516;
5251518052214940;51.7646;20.3496;13.0174;
5251518062214940;51.7158;20.4716;12.9686;
5251518072214940;51.6182;20.5692;13.0418;
5251518082214940;51.3864;20.7156;13.2370;
5251518092214940;51.2766;20.8620;13.2126;
5251518102214940;51.2400;20.9962;13.1516;
5251518112214940;51.0814;21.1426;13.1760;
5251518122214940;51.1180;21.3256;13.1150;
5251518132214940;51.0692;21.4232;13.1028;
5251518142214940;51.0448;21.5208;13.0174;
5251518152214940;51.1180;21.6306;12.7612;
5251518162214940;51.3254;21.6794;12.3830;
5251518172214940;51.3742;21.7648;12.2244;
5251518182214940;51.4352;21.8014;12.0780;
5251518192214940;51.5450;21.7892;11.9194;
5251518202214940;51.6548;21.7770;11.6876;
5251518212214940;51.7036;21.7892;11.6266;
5251518222214940;51.7036;21.7648;11.5778;
5251518232214940;51.5938;21.6794;11.7486;
5251518242214940;51.4108;21.6062;11.9438;
5251518252214940;51.3498;21.4720;12.1268;
5251518262214940;51.2644;21.3622;12.2610;
5251518272214940;51.2766;21.2646;12.4074;
5251518282214940;51.3254;21.1670;12.5050;
5251518292214940;51.4352;21.0084;12.4928;
5251518302214940;51.4596;20.8986;12.5294;
5251518312214940;51.5938;20.8254;12.5538;
5251518322214940;51.7768;20.7156;12.5416;
5251518332214940;51.9720;20.6058;12.3342;
5251518342214940;52.2282;20.5082;12.2488;
5251518352214940;52.2770;20.3740;12.2122;
5251518362214940;52.2160;20.2398;12.2854;
5251518372214940;52.1794;20.1056;12.3464;
5251518382214940;52.3502;19.9958;12.2732;
5251518392214940;52.4356;19.8738;12.3098;
5251518402214940;52.4844;19.8006;12.3586;
5251518412214940;52.4356;19.7030;12.6148;
5251518422214940;52.3990;19.6542;12.7856;
5251518432214940;52.3624;19.5932;12.9442;
5251518442214940;52.4600;19.5078;13.0784;
5251518452214940;52.4234;19.4346;13.3590;
5251518462214940;52.3380;19.3614;13.6518;
5251518472214940;52.3624;19.2760;13.7738;
5251518482214940;52.3502;19.1540;13.9202;
5251518492214940;52.2892;19.1052;14.0666;
5251518502214940;52.3136;18.9832;14.2008;
5251518512214940;52.3014;18.9222;14.3594;
5251518522214940;52.2404;18.8368;14.4326;
5251518532214940;52.3380;18.8002;14.3350;
5251518542214940;52.3868;18.7026;14.2984;
5251518552214940;52.3868;18.6172;14.3350;
5251518562214940;52.3868;18.5928;14.4448;
5251518572214940;52.4600;18.5196;14.4570;
5251518582214940;52.4234;18.5074;14.4570;
5251518592214940;52.5576;18.4342;14.4326;
5251518602214940;52.5942;18.3488;14.5180;
5251518612214940;52.6430;18.2756;14.5668;
5251518622214940;52.6796;18.2268;14.6766;
5251518632214940;52.6796;18.1414;14.7620;
5251518642214940;52.7528;18.0560;14.6888;
5251518652214940;52.8138;17.9706;14.7010;
5251518662214940;52.8504;17.8852;14.7864;
5251518672214940;52.7894;17.7754;14.9572;
5251518682214940;52.7528;17.7266;15.0548;
5251518692214940;52.8870;17.6900;14.9572;
5251518702214940;52.9968;17.6046;14.9206;
5251518712214940;53.1066;17.5680;14.8108;
5251518722214940;53.1188;17.4948;14.8474;
5251518732214940;53.2408;17.4460;14.7620;
5251518742214940;53.4360;17.4094;14.6156;
5251518752214940;53.4726;17.3484;14.5180;
5251518762214940;53.5092;17.3118;14.5180;
5251518772214940;53.4360;17.2508;14.6522;
5251518782214940;53.4116;17.2508;14.7010;
5251518792214940;53.3994;17.2630;14.7010;
5251518802214940;53.3872;17.3240;14.6278;
5251518812214940;53.3750;17.4094;14.6034;
5251518822214940;53.2042;17.4338;14.6766;
5251518832214940;53.2896;17.5436;14.5302;
5251518842214940;53.3140;17.6046;14.2984;
5251518852214940;53.4360;17.6900;14.0422;
5251518862214940;53.4482;17.7754;13.8592;
5251518872214940;53.4726;17.8242;13.7250;
5251518882214940;53.6068;17.8852;13.4932;
5251518892214940;53.7166;17.8974;13.2492;
5251518902214940;53.8752;17.9706;12.9442;
5251518912214940;53.9728;17.9950;12.6880;
5251518922214940;54.1070;18.0072;12.4684;
5251518932214940;54.1924;18.0194;12.3098;
5251518942214940;54.3144;17.9950;12.1268;
5251518952214940;54.3388;17.9706;12.0414;
5251518962214940;54.3388;17.8730;12.0780;
5251518972214940;54.4242;17.8242;11.9804;
5251518982214940;54.3510;17.6656;12.1146;
5251518992214940;54.4120;17.5680;12.0902;
5251519002214940;54.4120;17.5192;12.1268;
5251519012214940;54.3998;17.4216;12.2366;
5251519022214940;54.4242;17.3606;12.2244;
5251519032214940;54.4730;17.2508;12.2244;
5251519042214940;54.6072;17.2264;12.0658;
5251519052214940;54.5828;17.1532;12.0658;
5251519062214940;54.7536;17.1044;11.8828;
5251519072214940;54.8634;17.0190;11.8462;
5251519082214940;54.9122;16.9458;11.7974;
5251519092214940;54.9488;16.8970;11.7364;
5251519102214940;54.9488;16.8482;11.7730;
5251519112214940;55.0342;16.8604;11.6998;
5251519122214940;55.1684;16.8360;11.5534;
5251519132214940;55.2538;16.8116;11.5046;
5251519142214940;55.3148;16.8360;11.5534;
5251519152214940;55.2416;16.8482;11.5412;
5251519162214940;55.3270;16.8360;11.4680;
5251519172214940;55.4856;16.8360;11.3338;
5251519182214940;55.5466;16.8604;11.1630;
5251519192214940;55.5344;16.7872;11.2362;
5251519202214940;55.3636;16.7628;11.4070;
5251519212214940;55.2782;16.7262;11.4436;
5251519222214940;55.2172;16.7018;11.4436;
5251519232214940;55.2538;16.7018;11.4436;
5251519242214940;55.2538;16.7140;11.3582;
5251519252214940;55.2172;16.7750;11.2972;
5251519262214940;55.1562;16.7750;11.3216;
5251519272214940;55.5100;16.8482;10.8214;
5251519282214940;55.6076;16.8482;10.6628;
5251519292214940;55.7662;16.8726;10.4554;
5251519302214940;55.8028;16.8970;10.3822;
5251519312214940;55.8638;16.9214;10.2968;
5251519322214940;55.9126;16.8970;10.2968;
5251519332214940;55.8516;16.8360;10.4066;
5251519342214940;55.8882;16.8482;10.4310;
5251519352214940;55.5222;16.7628;10.8336;
5251519362214940;55.3392;16.7384;11.0410;
5251519372214940;55.0830;16.7506;11.3948;
5251519382214940;54.9610;16.7262;11.4802;
5251519392214940;54.8390;16.7262;11.5534;
5251519402214940;54.7536;16.7506;11.6144;
5251519412214940;54.7292;16.7872;11.5778;
5251519422214940;54.7658;16.8116;11.4558;
5251519432214940;54.7902;16.8970;11.3948;
5251519442214940;54.9000;16.9702;11.2240;
5251519452214940;54.9732;16.9824;11.0776;
5251519462214940;55.0342;17.0312;10.9434;
5251519472214940;54.9732;17.0434;11.0166;
5251519482214940;54.8634;17.0800;11.0654;
5251519492214940;54.5706;17.0800;11.4558;
5251519502214940;54.4242;17.0800;11.6266;
5251519512214940;54.3266;17.1044;11.6632;
5251519522214940;54.2046;17.1044;11.8218;
5251519532214940;54.2168;17.1288;11.7852;
5251519542214940;54.2656;17.1532;11.6876;
5251519552214940;54.4608;17.1776;11.4680;
5251519562214940;54.5950;17.1898;11.2972;
5251519572214940;54.8512;17.2142;10.8824;
5251519582214940;55.0098;17.2142;10.6994;
5251519592214940;55.0342;17.1654;10.7116;
5251519602214940;55.0220;17.1410;10.6994;
5251519612214940;54.9976;17.1044;10.7604;
5251519622214940;54.7658;17.0312;11.0288;
5251519632214940;54.4974;16.9824;11.3948;
5251519642214940;54.2046;16.9214;11.8706;
5251519652214940;54.0216;16.8482;12.2366;
5251519662214940;53.7898;16.7628;12.5416;
5251519672214940;53.6800;16.7140;12.6392;
5251519682214940;53.7776;16.6530;12.6026;
5251519692214940;53.8752;16.6408;12.5050;
5251519702214940;54.1070;16.6164;12.2732;
5251519712214940;54.2046;16.5554;12.1634;
5251519722214940;54.3510;16.4700;12.0414;
5251519732214940;54.4852;16.3602;11.9194;
5251519742214940;54.5584;16.3114;11.9072;
5251519752214940;54.6194;16.2626;12.0048;
5251519762214940;54.6438;16.1894;12.0414;
5251519772214940;54.6438;16.1284;12.1024;
5251519782214940;54.6804;16.0186;12.2122;
5251519792214940;54.7414;15.9332;12.2610;
5251519802214940;54.8512;15.8722;12.1390;
5251519812214940;54.8268;15.8600;12.1390;
5251519822214940;54.7536;15.7746;12.2610;
5251519832214940;54.8634;15.7258;12.1146;
5251519842214940;54.7780;15.6892;12.1756;
5251519852214940;54.6560;15.6038;12.2488;
5251519862214940;54.5706;15.5916;12.2976;
5251519872214940;54.6682;15.5428;12.2244;
5251519882214940;54.8146;15.5184;12.1146;
5251519892214940;54.9976;15.4696;11.9682;
5251519902214940;55.2172;15.4940;11.6510;
5251519912214940;55.2782;15.4696;11.6266;
5251519922214940;55.4612;15.4452;11.4680;
5251519932214940;55.6564;15.4574;11.3338;
5251519942214940;55.8028;15.4696;11.1996;
5251519952214940;55.7784;15.5062;11.1996;
5251519962214940;55.6564;15.4940;11.2972;
5251519972214940;55.4978;15.4940;11.4558;
5251519982214940;55.4368;15.4452;11.5534;
5251519992214940;55.3758;15.4330;11.5900;
5251520002214940;55.1806;15.4452;11.8340;
5251520012214940;54.9854;15.4208;12.0414;
5251520022214940;54.6072;15.3842;12.5416;
5251520032214940;54.2778;15.3476;12.8832;
5251520042214940;54.1070;15.3720;13.1150;
5251520052214940;53.9972;15.3720;13.2370;
5251520062214940;53.8264;15.4330;13.5664;
5251520072214940;53.6800;15.4452;13.7494;
5251520082214940;53.7532;15.4452;13.7006;
5251520092214940;53.7898;15.4452;13.7250;
5251520102214940;54.0582;15.4818;13.3712;
5251520112214940;54.2656;15.5306;13.1882;
5251520122214940;54.2534;15.5550;13.1882;
5251520132214940;54.3266;15.5916;13.1638;
5251520142214940;54.4852;15.5794;13.0174;
5251520152214940;54.5706;15.6160;12.9930;
5251520162214940;54.4364;15.6526;13.1150;
5251520172214940;54.4974;15.7014;13.0296;
5251520182214940;54.5096;15.7258;13.0540;
5251520192214940;54.6682;15.7868;12.8100;
5251520202214940;54.6804;15.3598;12.8222;
5251520212214940;54.7292;15.4330;12.7002;
5251520222214940;54.7658;15.5184;12.5904;
5251520232214940;54.8146;15.5794;12.5050;
5251520242214940;54.9000;15.6892;12.3952;
5251520252214940;54.8634;15.7624;12.4318;
5251520262214940;54.7902;15.8356;12.4928;
5251520272214940;54.7536;15.8722;12.6026;
5251520282214940;54.8146;15.8844;12.5050;
5251520292214940;54.8634;15.9454;12.4928;
5251520302214940;54.8146;16.0186;12.5416;
5251520312214940;54.8878;16.0796;12.3952;
5251520322214940;54.9488;16.1406;12.3098;
5251520332214940;54.9488;16.1894;12.2854;
5251520342214940;54.9122;16.2504;12.2488;
5251520352214940;54.7902;16.3358;12.3220;
5251520362214940;54.7048;16.4212;12.4440;
5251520372214940;54.6682;16.4456;12.4684;
5251520382214940;54.6682;16.5432;12.4562;
5251520392214940;54.6194;16.6286;12.5416;
5251520402214940;54.5096;16.6652;12.6148;
5251520412214940;54.4730;16.7872;12.6148;
5251520422214940;54.5218;16.8604;12.5416;
5251520432214940;54.4852;16.9092;12.6026;
5251520442214940;54.3632;17.0068;12.7368;
5251520452214940;54.2534;17.1044;12.8344;
5251520462214940;54.1314;17.1654;12.9564;
5251520472214940;53.9118;17.2386;13.1760;
5251520482214940;53.7898;17.2996;13.3712;
5251520492214940;53.6800;17.3362;13.5542;
5251520502214940;53.5092;17.3972;13.7982;
5251520512214940;53.4116;17.4460;13.8592;
5251520522214940;53.3628;17.4582;13.8958;
5251520532214940;53.3384;17.4826;13.8958;
5251520542214940;53.2774;17.4948;13.9934;
5251520552214940;53.3018;17.5070;13.9934;
5251520562214940;53.3262;17.5192;13.9446;
5251520572214940;53.3750;17.5680;13.8836;
5251520582214940;53.4604;17.5558;13.7738;
5251520592214940;53.4360;17.5314;13.7860;
5251520602214940;53.3750;17.5314;13.7738;
5251520612214940;53.3628;17.5558;13.7372;
5251520622214940;53.3872;17.5558;13.6762;
5251520632214940;53.5580;17.5802;13.4566;
5251520642214940;53.7288;17.6534;13.2492;
5251520652214940;53.7410;17.6412;13.1882;
5251520662214940;53.7166;17.6656;13.2370;
5251520672214940;53.7410;17.7632;13.2370;
5251520682214940;53.8142;17.7876;13.2248;
5251520692214940;53.8996;17.8120;13.1028;
5251520702214940;54.0094;17.8730;12.8588;
5251520712214940;54.0216;17.8730;12.8100;
5251520722214940;54.0582;17.7998;12.7490;
5251520732214940;54.1802;17.7998;12.5294;
5251520742214940;54.3266;17.7998;12.3342;
5251520752214940;54.4608;17.7998;12.0658;
5251520762214940;54.4852;17.8120;11.9316;
5251520772214940;54.5218;17.8852;11.8950;
5251520782214940;54.5584;17.8730;11.9194;
5251520792214940;54.5828;17.8852;11.8706;
5251520802214940;54.4608;17.9828;12.0170;
5251520812214940;54.3388;18.0194;12.0536;
5251520822214940;54.1680;18.0560;12.2244;
5251520832214940;54.1192;18.1048;12.3464;
5251520842214940;54.1436;18.1658;12.3098;
5251520852214940;54.0338;18.1048;12.3708;
5251520862214940;53.8752;18.1292;12.5416;
5251520872214940;53.5702;18.1536;12.7856;
5251520882214940;53.4848;18.1536;12.8466;
5251520892214940;53.3506;18.2024;13.1028;
5251520902214940;53.3140;18.2390;13.0540;
5251520912214940;53.1676;18.1902;13.0052;
5251520922214940;53.0944;18.1536;13.0418;
5251520932214940;53.0822;18.1414;13.0784;
5251520942214940;53.0944;18.1536;13.0540;
5251520952214940;53.1310;18.1536;12.9564;
5251520962214940;53.2286;18.0926;12.7002;
5251520972214940;53.3994;18.0682;12.4806;
5251520982214940;53.4726;18.0316;12.3952;
5251520992214940;53.5336;18.0560;12.3586;
5251521002214940;53.6434;18.0804;12.2732;
5251521012214940;53.5702;18.0926;12.2732;
5251521022214940;53.4238;18.0072;12.1024;
5251521032214940;53.2896;17.9584;12.1512;
