Sensor: mmc5603x Magnetometer Non-wakeup
Vendor: memsic
TimestampMag [ns]; MagX [uT]; MagY [uT]; MagZ [uT]
913117404845625;21.8014;16.9458;7.2102;
913117414845625;21.8014;16.9458;7.2102;
913117426203594;20.5082;16.6408;6.9052;
913117436203594;20.5936;16.7262;6.8686;
913117446203594;20.6668;16.7140;6.7588;
913117456203594;20.6424;16.7262;6.7710;
913117466203594;20.4960;16.7262;6.8686;
913117476203594;20.5326;16.7506;6.8076;
913117486203594;20.6180;16.8116;6.6490;
913117496203594;20.6058;16.8604;6.6856;
913117506203594;20.6424;16.8970;6.7344;
913117516203594;20.5936;16.8848;6.8076;
913117526203594;20.5326;16.9214;6.8686;
913117536203594;20.5936;16.9702;6.8320;
913117546203594;20.8254;16.9824;6.6368;
913117556203594;20.8376;16.9824;6.5636;
913117566203594;20.8498;17.0068;6.6124;
913117576203594;20.7888;17.0312;6.5392;
913117586203594;20.7156;17.0068;6.5148;
913117596203594;20.7034;16.9824;6.3684;
913117606203594;20.8132;17.0068;6.2708;
913117616203594;20.7522;17.0068;6.3074;
913117626203594;20.6058;17.0434;6.3928;
913117636203594;20.6546;17.0556;6.4050;
913117646203594;20.6912;17.0556;6.3318;
913117656203594;20.8376;17.0556;6.1244;
913117666203594;20.9474;17.1044;6.0512;
913117676203594;20.9962;17.1776;6.1122;
913117686203594;20.8376;17.1776;6.1488;
913117696203594;20.9108;17.2142;6.0756;
913117706203594;20.9230;17.2020;6.1854;
913117716203594;20.6058;17.2264;6.4782;
913117726203594;20.3984;17.2508;6.7710;
913117736203594;20.2764;17.2630;7.0638;
913117746203594;20.1666;17.2264;7.1248;
913117756203594;20.1056;17.2020;7.1980;
913117766203594;20.0934;17.2264;7.3688;
913117776203594;20.0690;17.1776;7.3688;
913117786203594;20.1910;17.2264;7.2102;
913117796203594;20.5082;17.2264;6.9540;
913117806203594;20.6546;17.2264;6.6978;
913117816203594;20.8010;17.2264;6.5270;
913117826203594;20.9108;17.2508;6.4294;
913117836203594;21.0328;17.2386;6.3196;
913117846203594;21.1304;17.2508;6.0756;
913117856203594;21.0572;17.2630;6.2464;
913117866203594;21.0450;17.2386;6.2220;
913117876203594;21.0938;17.2264;6.1488;
913117886203594;21.0816;17.1898;6.1854;
913117896203594;21.1060;17.1776;6.3196;
913117906203594;21.0938;17.1532;6.2952;
913117916203594;21.0816;17.1776;6.3074;
913117926203594;21.1060;17.1654;6.4660;
913117936203594;21.2646;17.1532;6.2220;
913117946203594;21.2280;17.1288;6.2464;
913117956203594;21.1304;17.1044;6.4050;
913117966203594;21.1670;17.1166;6.4782;
913117976203594;21.1426;17.1166;6.3928;
913117986203594;21.1060;17.0922;6.4782;
913117996203594;21.0938;17.0678;6.5026;
913118006203594;21.0450;16.9824;6.5392;
913118016203594;21.0084;16.9458;6.6246;
913118026203594;21.1304;16.8970;6.5758;
913118036203594;21.2524;16.8604;6.3928;
913118046203594;21.3622;16.8360;6.2830;
913118056203594;21.3866;16.7506;6.3074;
913118066203594;21.5208;16.7262;6.2220;
913118076203594;21.5696;16.6408;6.2586;
913118086203594;21.6916;16.6042;6.2098;
913118096203594;21.6428;16.5432;6.1976;
913118106203594;21.5940;16.4700;6.1976;
913118116203594;21.6428;16.3968;6.1976;
913118126203594;21.5574;16.2504;6.1976;
913118136203594;21.3744;16.1650;6.2586;
913118146203594;21.4110;16.1040;6.3440;
913118156203594;21.4354;15.9942;6.2098;
913118166203594;21.4232;15.9088;6.0390;
913118176203594;21.4842;15.8478;6.0756;
913118186203594;21.4842;15.7624;6.1000;
913118196203594;21.4720;15.7014;6.1976;
913118206203594;21.5452;15.7014;6.2220;
913118216203594;21.8868;15.6892;6.0146;
913118226203594;21.9112;15.6160;5.8438;
913118236203594;22.0942;15.6282;5.7828;
913118246203594;22.2406;15.6160;5.8194;
913118256203594;22.2772;15.5672;5.8682;
913118266203594;22.2772;15.5550;5.9414;
913118276203594;22.1430;15.5062;6.1488;
913118286203594;22.0820;15.4330;6.1488;
913118296203594;21.9356;15.3598;6.3074;
913118306203594;21.8380;15.2988;6.6002;
913118316203594;21.5940;15.2744;6.8686;
913118326203594;21.3378;15.2256;7.0150;
913118336203594;21.2646;15.1646;7.0882;
913118346203594;21.2036;15.1402;7.1858;
913118356203594;21.0816;15.1280;7.1980;
913118366203594;20.9108;15.1036;7.3932;
913118376203594;20.8864;15.1402;7.4542;
913118386203594;20.7156;15.1158;7.4908;
913118396203594;20.5692;15.0914;7.4786;
913118406203594;20.6302;15.0792;7.4298;
913118416203594;20.7156;15.0914;7.2712;
913118426203594;20.8864;15.0792;6.9418;
913118436203594;21.2524;15.0914;6.5392;
913118446203594;21.5818;15.1280;6.1732;
913118456203594;21.7160;15.0670;5.8072;
913118466203594;22.0088;15.0670;5.3924;
913118476203594;22.3382;15.0548;5.0142;
913118486203594;22.4724;15.0548;4.8068;
913118496203594;22.5700;15.0670;4.7214;
913118506203594;22.5212;15.0426;4.7580;
913118516203594;22.3626;15.0060;4.7946;
913118526203594;22.2772;14.9816;4.8678;
913118536203594;22.3260;14.9694;4.8434;
913118546203594;22.3992;14.9450;4.6970;
913118556203594;22.4724;14.9572;4.5872;
913118566203594;22.6188;14.9450;4.4774;
913118576203594;22.6310;14.9084;4.2578;
913118586203594;22.7286;14.8962;4.0748;
913118596203594;22.9116;14.8840;3.9772;
913118606203594;23.0336;14.8596;3.8186;
913118616203594;22.9116;14.7986;3.9040;
913118626203594;22.8384;14.7864;3.9894;
913118636203594;22.8018;14.7132;4.1480;
913118646203594;22.6554;14.6644;4.1968;
913118656203594;22.7164;14.6278;4.1968;
913118666203594;22.7774;14.5668;4.2456;
913118676203594;22.7042;14.4814;4.2578;
913118686203594;22.8018;14.4326;4.1480;
913118696203594;23.1190;14.4326;3.9284;
913118706203594;23.3142;14.3594;3.6478;
913118716203594;23.4728;14.3228;3.3184;
913118726203594;23.7534;14.2984;3.0012;
913118736203594;23.8632;14.2374;2.8548;
913118746203594;23.8632;14.2374;2.7084;
913118756203594;23.9364;14.2496;2.6352;
913118766203594;23.8022;14.2374;2.7572;
913118776203594;23.5338;14.2008;2.8670;
913118786203594;23.3386;14.2252;3.2086;
913118796203594;23.1434;14.1642;3.4770;
913118806203594;22.7896;14.0788;3.9040;
913118816203594;22.4846;14.0788;4.3188;
913118826203594;22.2894;14.0422;4.6482;
913118836203594;22.0332;13.9934;4.8678;
913118846203594;22.0454;14.0300;4.8678;
913118856203594;22.0820;14.0422;4.9410;
913118866203594;22.0088;14.0178;4.9288;
913118876203594;21.8990;14.0910;5.0142;
913118886203594;21.9844;14.1764;4.9410;
913118896203594;21.9234;14.2252;4.7946;
913118906203594;21.7648;14.2740;4.7824;
913118916203594;21.9722;14.3594;4.6360;
913118926203594;21.9112;14.3472;4.6116;
913118936203594;21.8502;14.3960;4.4286;
913118946203594;21.8746;14.4936;4.3920;
913118956203594;21.9966;14.5668;4.1480;
913118966203594;22.0454;14.5912;4.0382;
913118976203594;22.1918;14.6034;3.8308;
913118986203594;22.4236;14.6156;3.5868;
913118996203594;22.3382;14.6034;3.6112;
913119006203594;22.3992;14.6400;3.4770;
913119016203594;22.5334;14.6400;3.4404;
913119026203594;22.6066;14.5668;3.2086;
913119036203594;22.5090;14.4814;3.4160;
913119046203594;22.4358;14.4326;3.5258;
913119056203594;22.2894;14.3838;3.6966;
913119066203594;22.2650;14.3228;3.7332;
913119076203594;22.2650;14.2374;3.8430;
913119086203594;22.1430;14.1520;4.0260;
913119096203594;22.0698;14.0422;4.2578;
913119106203594;22.0820;14.0300;4.5384;
913119116203594;22.1186;13.9568;4.6604;
913119126203594;22.0454;13.8470;4.7946;
913119136203594;22.0210;13.7250;5.0752;
913119146203594;22.0454;13.6518;5.1850;
913119156203594;22.0820;13.5664;5.0264;
913119166203594;22.0820;13.4688;5.1972;
913119176203594;22.0332;13.3590;5.3558;
913119186203594;21.9356;13.2248;5.4290;
913119196203594;21.9478;13.1150;5.3436;
913119206203594;22.1674;13.0418;5.1850;
913119216203594;22.4968;12.9564;4.8190;
913119226203594;22.5456;12.8344;4.8434;
913119236203594;22.5578;12.7368;5.0386;
913119246203594;22.6066;12.6270;5.0020;
913119256203594;22.5456;12.5050;5.0630;
913119266203594;22.4114;12.3586;5.4168;
913119276203594;22.2162;12.2366;5.7584;
913119286203594;22.0210;12.1268;6.1366;
913119296203594;21.6916;11.9926;6.5270;
913119306203594;21.5086;11.8584;6.8076;
913119316203594;21.3744;11.6876;7.0638;
913119326203594;21.2890;11.5778;7.1980;
913119336203594;21.3134;11.4924;7.2712;
913119346203594;21.3012;11.3826;7.1980;
913119356203594;21.3744;11.2606;7.2834;
913119366203594;21.5086;11.1874;7.2590;
913119376203594;21.6184;11.0532;7.3078;
913119386203594;21.6794;10.9922;7.3688;
913119396203594;21.7404;10.9556;7.3566;
913119406203594;21.6916;10.9190;7.5396;
913119416203594;21.6550;10.9190;7.7592;
913119426203594;21.7526;10.9312;7.9056;
913119436203594;21.8380;10.9556;7.9300;
913119446203594;21.6672;10.9556;8.1374;
913119456203594;21.6428;11.0654;8.2472;
913119466203594;21.7770;11.1142;8.2716;
913119476203594;21.7526;11.1874;8.2960;
913119486203594;21.8380;11.2240;8.2716;
913119496203594;21.9966;11.2850;8.1740;
913119506203594;22.0820;11.3460;8.0886;
913119516203594;22.1064;11.4314;7.9422;
913119526203594;22.2284;11.5046;7.8202;
913119536203594;22.2894;11.5900;7.8080;
913119546203594;22.1186;11.6754;7.8934;
913119556203594;21.9722;11.8218;8.0642;
913119566203594;21.8868;11.9682;8.1496;
913119576203594;21.6428;12.0902;8.2716;
913119586203594;21.5208;12.2854;8.3326;
913119596203594;21.5330;12.4684;8.3570;
913119606203594;21.4842;12.6392;8.3326;
913119616203594;21.3378;12.8466;8.3570;
913119626203594;21.3012;13.0540;8.4058;
913119636203594;21.3500;13.1882;8.3936;
913119646203594;21.2280;13.3834;8.6498;
913119656203594;21.2036;13.5786;8.7230;
913119666203594;21.0572;13.7128;8.8450;
913119676203594;20.7644;13.8348;9.1012;
913119686203594;20.5082;14.0056;9.5160;
913119696203594;20.2398;14.1276;9.8210;
913119706203594;19.9958;14.2618;10.0772;
913119716203594;19.7762;14.4814;10.3578;
913119726203594;19.6542;14.6644;10.4188;
913119736203594;19.4102;14.7620;10.6140;
913119746203594;19.2394;14.9450;10.9190;
913119756203594;19.1540;15.1402;11.1264;
913119766203594;19.1174;15.3232;10.9678;
913119776203594;19.1052;15.5184;10.9190;
913119786203594;19.1174;15.7136;10.8092;
913119796203594;19.0320;15.8722;10.6750;
913119806203594;18.8734;16.0430;10.5896;
913119816203594;18.8856;16.2626;10.4920;
913119826203594;18.5806;16.3968;10.6750;
913119836203594;18.5928;16.5798;10.4432;
913119846203594;18.6660;16.7628;10.3456;
913119856203594;18.7270;16.9336;10.1748;
913119866203594;18.7392;17.0922;10.0772;
913119876203594;18.7392;17.2142;10.0894;
913119886203594;18.8124;17.3240;10.0528;
913119896203594;18.9588;17.4460;9.8088;
913119906203594;19.3614;17.5558;9.3086;
913119916203594;19.3004;17.6656;9.3574;
913119926203594;19.0564;17.7022;9.4550;
913119936203594;18.9344;17.7388;9.6502;
913119946203594;18.9222;17.7632;9.6990;
913119956203594;18.8490;17.7754;9.6868;
913119966203594;18.7758;17.7754;9.6868;
913119976203594;18.7636;17.7632;9.7234;
913119986203594;18.7392;17.7388;9.6624;
913119996203594;18.8490;17.6534;9.4672;
913120006203594;19.2028;17.6046;9.2842;
913120016203594;19.3248;17.5680;9.1378;
913120026203594;19.3614;17.5070;9.0524;
913120036203594;19.4590;17.4704;9.0158;
913120046203594;19.6176;17.3972;8.9914;
913120056203594;19.7030;17.2874;8.9548;
913120066203594;19.7152;17.2386;9.1500;
913120076203594;19.6786;17.1288;9.2842;
913120086203594;19.5932;17.0190;9.3818;
913120096203594;19.6908;16.9336;9.3818;
913120106203594;19.7030;16.8360;9.5526;
913120116203594;19.7030;16.6530;9.5526;
913120126203594;19.7884;16.4944;9.4916;
913120136203594;19.6908;16.3968;9.6380;
913120146203594;19.6908;16.2260;9.6258;
913120156203594;19.5810;16.0796;9.8820;
913120166203594;19.5566;15.9454;10.0650;
913120176203594;19.5322;15.7380;10.1016;
913120186203594;19.6054;15.5306;10.0650;
913120196203594;19.8128;15.4208;10.0528;
913120206203594;20.0202;15.3232;10.0162;
913120216203594;20.2276;15.1890;9.9308;
913120226203594;20.4350;15.1036;9.8454;
913120236203594;20.7522;15.0182;9.6136;
913120246203594;20.8742;14.9328;9.4062;
913120256203594;21.0328;14.9328;9.3208;
913120266203594;21.0938;14.9450;9.3452;
913120276203594;20.9718;14.9206;9.4306;
913120286203594;20.7156;14.9572;9.7234;
913120296203594;20.5326;14.9450;9.9186;
913120306203594;20.3374;15.0060;10.0528;
913120316203594;20.2154;15.1280;10.1382;
913120326203594;20.1422;15.2500;10.2846;
913120336203594;19.9592;15.3598;10.4310;
913120346203594;19.8738;15.4940;10.4554;
913120356203594;19.8372;15.6770;10.4188;
913120366203594;19.9104;15.8112;10.0772;
913120376203594;19.8494;15.9942;9.8820;
913120386203594;19.7762;16.1772;9.7356;
913120396203594;19.6542;16.3236;9.6380;
913120406203594;19.5566;16.4944;9.5648;
913120416203594;19.5078;16.7018;9.4794;
913120426203594;19.4834;16.9214;9.3696;
913120436203594;19.5200;17.1044;9.2476;
913120446203594;19.4834;17.3362;9.3818;
913120456203594;19.6054;17.5924;9.3086;
913120466203594;19.7640;17.7998;9.1744;
913120476203594;19.7518;18.0194;9.1622;
913120486203594;19.8128;18.2390;9.1134;
913120496203594;19.7274;18.4098;9.0768;
913120506203594;19.5322;18.5440;9.0280;
913120516203594;19.2760;18.7270;9.2110;
913120526203594;19.1296;18.8612;9.2476;
913120536203594;18.7636;18.9710;9.4550;
913120546203594;18.5440;19.0930;9.6258;
913120556203594;18.4098;19.2150;9.6136;
913120566203594;18.2024;19.3248;9.6868;
913120576203594;18.1414;19.4956;9.5770;
913120586203594;18.2268;19.6786;9.4306;
913120596203594;18.3610;19.8372;9.1012;
913120606203594;18.3732;19.9714;8.9060;
913120616203594;18.6172;20.1422;8.5766;
913120626203594;18.7514;20.2764;8.3082;
913120636203594;18.8246;20.3984;8.1252;
913120646203594;18.9344;20.4960;7.7714;
913120656203594;18.8734;20.5082;7.7958;
913120666203594;18.5318;20.5448;8.1862;
913120676203594;18.5196;20.5570;8.2106;
913120686203594;18.5806;20.6058;8.2594;
913120696203594;18.3854;20.6790;8.4668;
913120706203594;18.3122;20.7278;8.6742;
913120716203594;18.3122;20.7522;8.7352;
913120726203594;18.2268;20.8010;8.8938;
913120736203594;18.2634;20.8742;9.0158;
913120746203594;18.6782;20.9962;8.5278;
913120756203594;18.7514;21.1426;8.3448;
913120766203594;18.7392;21.2158;8.1618;
913120776203594;18.8124;21.3134;7.9056;
913120786203594;18.8856;21.4354;7.7226;
913120796203594;18.9222;21.6062;7.5518;
913120806203594;19.0564;21.7282;7.3444;
913120816203594;19.0808;21.8868;7.1370;
913120826203594;18.8612;21.9722;7.2956;
913120836203594;18.5928;22.0454;7.5274;
913120846203594;18.3854;22.1918;7.6982;
913120856203594;18.1780;22.2894;7.8568;
913120866203594;17.9950;22.3870;7.7836;
913120876203594;17.7998;22.4602;7.9178;
913120886203594;17.6168;22.5578;8.0642;
913120896203594;17.5070;22.6066;8.1008;
913120906203594;17.5924;22.6920;7.9422;
913120916203594;17.6412;22.7896;7.7592;
913120926203594;17.7388;22.8262;7.6128;
913120936203594;17.8364;22.8262;7.5030;
913120946203594;17.7876;22.8262;7.6250;
913120956203594;17.7632;22.8140;7.5884;
913120966203594;17.7876;22.8262;7.5884;
913120976203594;17.8608;22.8384;7.5640;
913120986203594;17.8120;22.7774;7.6250;
913120996203594;17.9462;22.7042;7.5518;
913121006203594;18.0072;22.6554;7.4054;
913121016203594;18.0560;22.6920;7.4298;
913121026203594;18.0316;22.7042;7.4542;
913121036203594;18.0926;22.7164;7.3566;
913121046203594;18.0682;22.6798;7.2712;
913121056203594;17.9950;22.7042;7.2956;
913121066203594;17.9950;22.7408;7.2346;
913121076203594;17.9462;22.7652;7.2346;
913121086203594;17.8364;22.7896;7.3444;
913121096203594;17.7998;22.7774;7.2956;
913121106203594;17.8486;22.7896;7.2224;
913121116203594;17.6656;22.8262;7.4908;
913121126203594;17.4704;22.8628;7.7104;
913121136203594;17.3728;22.8750;7.7470;
913121146203594;17.2142;22.8750;7.9056;
913121156203594;16.9824;22.8994;8.1008;
913121166203594;16.8238;22.9482;8.2350;
913121176203594;16.6530;22.9726;8.4424;
913121186203594;16.4822;22.9848;8.3936;
913121196203594;16.5066;23.0214;8.2472;
913121206203594;16.5432;23.0580;8.1252;
913121216203594;16.5676;23.1068;8.0032;
913121226203594;16.7262;23.2166;7.7470;
913121236203594;16.8482;23.3020;7.5030;
913121246203594;16.9824;23.3630;7.1736;
913121256203594;17.1410;23.4606;6.8442;
913121266203594;17.3118;23.5704;6.5758;
913121276203594;17.4826;23.6558;6.2952;
913121286203594;17.5924;23.7168;5.9292;
913121296203594;17.5558;23.8022;5.8682;
913121306203594;17.5802;23.8876;5.6852;
913121316203594;17.5924;23.9608;5.5998;
913121326203594;17.5436;24.0584;5.5632;
913121336203594;17.5070;24.1438;5.4168;
913121346203594;17.4704;24.2414;5.2582;
913121356203594;17.5680;24.3634;5.0142;
913121366203594;17.6534;24.4854;4.8068;
913121376203594;17.8974;24.6074;4.4896;
913121386203594;17.7876;24.6562;4.4530;
913121396203594;17.6412;24.7538;4.3798;
913121406203594;17.5070;24.8270;4.4652;
913121416203594;17.4826;24.9124;4.3920;
913121426203594;17.6900;24.9734;4.1846;
913121436203594;17.2752;24.9978;4.5018;
913121446203594;16.9580;25.0100;4.7580;
913121456203594;16.6774;25.0344;4.9166;
913121466203594;16.6164;25.0710;4.8434;
913121476203594;16.6774;25.0710;4.8434;
913121486203594;16.7750;25.1198;4.7092;
913121496203594;16.7262;25.1198;4.6360;
913121506203594;16.4944;25.1564;4.9166;
913121516203594;16.6896;25.2174;4.6726;
913121526203594;16.8604;25.2662;4.4652;
913121536203594;16.9580;25.3150;4.2822;
913121546203594;17.0556;25.3394;4.1236;
913121556203594;17.1288;25.3638;3.9406;
913121566203594;17.1288;25.3516;3.7576;
913121576203594;17.1776;25.3638;3.7332;
913121586203594;17.2020;25.3516;3.5258;
913121596203594;17.3362;25.3516;3.3306;
913121606203594;17.4460;25.3272;3.1598;
913121616203594;17.4948;25.2906;3.0622;
913121626203594;17.5680;25.2906;2.9036;
913121636203594;17.6656;25.2662;2.6840;
913121646203594;17.8608;25.2662;2.5132;
913121656203594;17.9340;25.2418;2.3546;
913121666203594;17.8486;25.1564;2.3790;
913121676203594;17.8608;25.1076;2.3302;
913121686203594;17.8120;25.0588;2.3668;
913121696203594;17.9340;24.9856;2.2448;
913121706203594;18.0194;24.9124;2.1960;
913121716203594;18.1536;24.8148;2.0862;
913121726203594;18.1658;24.6562;2.1106;
913121736203594;18.1658;24.4976;2.1350;
913121746203594;18.1902;24.4122;2.1960;
913121756203594;18.0682;24.2536;2.3668;
913121766203594;18.1414;24.0706;2.4400;
913121776203594;18.2756;23.9364;2.4278;
913121786203594;18.3122;23.7778;2.5132;
913121796203594;18.2512;23.6558;2.7450;
913121806203594;18.1658;23.5216;3.0012;
913121816203594;18.2146;23.4118;3.1476;
913121826203594;18.4342;23.2898;3.1110;
913121836203594;18.6538;23.1190;3.1232;
913121846203594;18.6782;22.9726;3.1720;
913121856203594;18.6050;22.8384;3.4160;
913121866203594;18.4952;22.6798;3.7576;
913121876203594;18.4586;22.5334;3.9772;
913121886203594;18.4952;22.4358;4.1236;
913121896203594;18.4464;22.3260;4.3676;
913121906203594;18.4098;22.1674;4.5872;
913121916203594;18.3244;22.0942;4.7580;
913121926203594;18.3610;22.0210;4.8800;
913121936203594;18.3488;21.9234;4.9654;
913121946203594;18.4464;21.8258;4.9532;
913121956203594;18.5440;21.7526;4.9166;
913121966203594;18.7270;21.6550;4.7092;
913121976203594;18.9344;21.5330;4.5628;
913121986203594;18.9710;21.4354;4.4774;
913121996203594;19.0930;21.3378;4.5262;
913122006203594;19.1418;21.2646;4.6116;
913122016203594;19.2028;21.1304;4.6970;
913122026203594;19.3614;21.0694;4.6360;
913122036203594;19.3858;20.9352;4.6238;
913122046203594;19.4346;20.8498;4.7458;
913122056203594;19.4224;20.7766;4.9166;
913122066203594;19.3126;20.6668;5.2704;
913122076203594;19.2028;20.5448;5.4900;
913122086203594;19.1174;20.3740;5.6608;
913122096203594;19.0320;20.2398;5.7584;
913122106203594;18.9344;20.0812;6.0512;
913122116203594;18.8490;19.9714;6.3806;
913122126203594;18.8612;19.8616;6.5026;
913122136203594;18.8856;19.7396;6.4782;
913122146203594;19.0320;19.6420;6.2952;
913122156203594;19.1296;19.5322;6.2586;
913122166203594;19.2272;19.4712;6.1610;
913122176203594;19.3492;19.4102;6.1488;
913122186203594;19.5932;19.3370;5.8926;
913122196203594;19.8250;19.2760;5.7462;
913122206203594;19.8006;19.1540;5.8560;
913122216203594;19.8006;19.0564;5.8926;
913122226203594;19.9592;18.9710;5.8072;
913122236203594;20.1178;18.8856;5.7340;
913122246203594;20.2398;18.8002;5.7340;
913122256203594;20.3008;18.7148;5.7706;
913122266203594;20.1910;18.6538;5.9780;
913122276203594;20.1666;18.5440;6.0634;
913122286203594;20.2642;18.4464;6.0268;
913122296203594;20.4594;18.3854;6.0146;
913122306203594;20.5326;18.2756;5.9780;
913122316203594;20.5814;18.2390;5.9414;
913122326203594;20.6302;18.1902;5.9414;
913122336203594;20.6180;18.1414;6.0634;
913122346203594;20.5692;18.0804;6.1366;
913122356203594;20.4350;18.0438;6.3806;
913122366203594;20.2642;18.0438;6.6002;
913122376203594;20.0080;18.0194;6.9296;
913122386203594;19.7640;18.0438;7.4054;
913122396203594;19.5078;18.0194;7.8202;
913122406203594;19.2272;17.9584;8.2472;
913122416203594;19.0442;17.9340;8.4302;
913122426203594;18.9710;17.9340;8.4058;
913122436203594;18.9588;17.9218;8.4302;
913122446203594;18.8978;17.9340;8.4424;
913122456203594;19.0076;17.9462;8.3082;
913122466203594;19.1784;17.9462;8.0276;
913122476203594;19.3126;17.9706;7.8446;
913122486203594;19.4468;18.0438;7.6860;
913122496203594;19.4956;18.1048;7.6128;
913122506203594;19.5322;18.1414;7.7958;
913122516203594;19.4956;18.2268;7.8446;
913122526203594;19.5200;18.2756;7.9300;
913122536203594;19.3980;18.3610;8.1618;
913122546203594;19.3248;18.4220;8.3570;
913122556203594;19.3370;18.4708;8.3936;
913122566203594;19.2516;18.5440;8.5278;
913122576203594;19.1906;18.6172;8.6986;
913122586203594;19.1174;18.6782;8.7718;
913122596203594;19.1662;18.7392;8.7718;
913122606203594;19.1052;18.8002;8.8084;
913122616203594;19.0320;18.8246;8.8572;
913122626203594;18.8612;18.9100;9.0158;
913122636203594;18.6538;18.9954;9.1866;
913122646203594;18.7148;19.0686;9.0768;
913122656203594;18.7514;19.1418;8.8816;
913122666203594;18.6782;19.2760;8.9426;
913122676203594;18.5440;19.3492;8.9914;
913122686203594;18.5440;19.4590;8.9304;
913122696203594;18.4830;19.5932;8.8694;
913122706203594;18.6172;19.7152;8.6376;
913122716203594;18.7392;19.8372;8.4180;
913122726203594;18.6904;19.9714;8.4302;
913122736203594;18.6050;20.0934;8.4668;
913122746203594;18.5806;20.2032;8.3570;
913122756203594;18.7148;20.3740;8.1374;
913122766203594;18.7636;20.4838;7.9056;
913122776203594;18.8490;20.6180;7.7104;
913122786203594;18.7392;20.7034;7.6860;
913122796203594;18.7636;20.8132;7.5518;
913122806203594;18.9100;20.9108;7.2346;
913122816203594;18.9954;21.0206;7.0028;
913122826203594;19.2028;21.1182;6.6978;
913122836203594;19.1784;21.1304;6.6002;
913122846203594;19.0808;21.1914;6.6246;
913122856203594;19.1540;21.2158;6.5026;
913122866203594;19.2150;21.2646;6.4050;
913122876203594;19.0808;21.2890;6.6368;
913122886203594;18.8490;21.2768;6.8686;
913122896203594;18.7148;21.2768;7.1370;
913122906203594;18.4952;21.2768;7.4664;
913122916203594;18.4830;21.2768;7.5518;
913122926203594;18.4464;21.3256;7.7592;
913122936203594;18.3854;21.3622;7.8324;
913122946203594;18.3732;21.3866;7.8568;
913122956203594;18.4098;21.4232;7.7104;
913122966203594;18.4342;21.4720;7.7226;
913122976203594;18.4952;21.5330;7.7592;
913122986203594;18.5074;21.5696;7.6738;
913122996203594;18.4586;21.6062;7.6616;
913123006203594;18.4586;21.6062;7.6250;
913123016203594;18.2756;21.6062;7.8324;
913123026203594;18.0438;21.6550;8.1984;
913123036203594;17.8730;21.7038;8.4302;
913123046203594;17.8486;21.7404;8.5156;
913123056203594;17.8730;21.7526;8.4424;
913123066203594;17.8364;21.7770;8.5156;
913123076203594;17.7754;21.8380;8.7474;
913123086203594;17.8974;21.8868;8.6254;
913123096203594;18.0682;21.9234;8.5766;
913123106203594;18.3122;21.9356;8.3204;
913123116203594;18.5318;21.9112;8.0642;
913123126203594;18.6172;21.9234;7.9178;
913123136203594;18.6538;21.9600;7.7714;
913123146203594;18.8368;21.9966;7.5518;
913123156203594;18.9832;21.9722;7.3200;
913123166203594;18.9222;21.9844;7.3688;
913123176203594;18.8734;21.9966;7.3444;
913123186203594;18.7148;21.9844;7.5030;
913123196203594;18.6660;22.0454;7.6006;
913123206203594;18.6416;22.0698;7.7348;
913123216203594;18.5318;22.0698;7.9544;
913123226203594;18.4098;22.1064;8.1862;
913123236203594;18.3122;22.1796;8.3204;
913123246203594;18.2634;22.2162;8.3326;
913123256203594;18.1780;22.2772;8.4302;
913123266203594;18.2024;22.3504;8.4424;
913123276203594;18.0926;22.3992;8.5278;
913123286203594;17.9340;22.4236;8.6864;
913123296203594;17.7510;22.4968;8.8206;
913123306203594;17.5680;22.4968;8.9914;
913123316203594;17.4460;22.5578;9.0280;
913123326203594;17.3972;22.5822;9.0524;
913123336203594;17.4460;22.6432;8.9792;
913123346203594;17.3606;22.6676;8.9060;
913123356203594;17.3240;22.7042;8.8694;
913123366203594;17.3484;22.7896;8.7352;
913123376203594;17.5070;22.8750;8.5400;
913123386203594;17.6290;22.9726;8.2228;
913123396203594;17.7144;22.9848;8.1008;
913123406203594;17.7510;23.0824;8.0154;
913123416203594;17.7998;23.1678;7.8568;
913123426203594;17.8486;23.2410;7.8080;
913123436203594;17.7754;23.2776;7.8080;
913123446203594;17.7266;23.3142;7.8202;
913123456203594;17.6412;23.3142;7.7714;
913123466203594;17.6534;23.3630;7.7104;
913123476203594;17.6168;23.4606;7.6982;
913123486203594;17.6656;23.5094;7.5396;
913123496203594;17.5924;23.5826;7.5762;
913123506203594;17.7510;23.6680;7.3200;
913123516203594;17.9462;23.7778;6.9906;
913123526203594;18.1658;23.8998;6.7344;
913123536203594;18.3122;23.9852;6.5148;
913123546203594;18.3854;24.0462;6.3562;
913123556203594;18.4464;24.1316;6.2220;
913123566203594;18.3854;24.1804;6.2586;
913123576203594;18.4830;24.2536;6.1244;
913123586203594;18.3488;24.2658;6.2220;
913123596203594;18.3244;24.2780;6.3562;
913123606203594;18.2146;24.2658;6.4294;
913123616203594;18.0926;24.2902;6.5880;
913123626203594;17.8608;24.3512;6.9052;
913123636203594;17.6656;24.3390;7.0882;
913123646203594;17.6290;24.3512;7.1370;
913123656203594;17.4826;24.3390;7.2468;
913123666203594;17.3728;24.3756;7.3200;
913123676203594;17.1410;24.4366;7.5152;
913123686203594;16.9458;24.4244;7.6982;
913123696203594;16.8848;24.4732;7.6982;
913123706203594;16.9824;24.5098;7.5640;
913123716203594;17.0800;24.5830;7.3810;
913123726203594;17.1288;24.6196;7.2102;
913123736203594;17.2142;24.6440;7.0638;
913123746203594;17.2874;24.6318;6.9784;
913123756203594;17.4216;24.5708;6.8198;
913123766203594;17.6778;24.6440;6.5148;
913123776203594;17.8486;24.6562;6.2342;
913123786203594;18.0072;24.6806;5.9902;
913123796203594;18.0194;24.6684;5.9658;
913123806203594;18.0316;24.7172;6.0878;
913123816203594;17.9584;24.7660;6.2952;
913123826203594;17.9096;24.8270;6.3928;
913123836203594;17.8974;24.9246;6.3928;
913123846203594;17.8486;24.9856;6.3806;
913123856203594;17.7266;24.9612;6.5392;
913123866203594;17.5802;24.9734;6.6612;
913123876203594;17.5680;25.0100;6.7588;
913123886203594;17.4704;24.9978;6.8564;
913123896203594;17.5436;24.9978;6.7710;
913123906203594;17.6168;24.9856;6.6368;
913123916203594;17.6900;24.9612;6.4172;
913123926203594;17.7266;24.9734;6.4416;
913123936203594;17.7632;25.0222;6.4294;
913123946203594;17.7510;25.0222;6.3196;
913123956203594;17.8364;24.9978;6.1976;
913123966203594;17.9462;25.0344;5.9780;
913123976203594;17.9706;25.0466;5.7828;
913123986203594;18.1292;25.0832;5.5998;
913123996203594;18.1292;25.1076;5.6242;
913124006203594;18.0438;25.0832;5.7462;
913124016203594;17.9584;25.0344;5.7950;
913124026203594;17.9706;25.0344;5.8316;
913124036203594;18.0438;25.0344;5.7218;
913124046203594;18.0560;24.9734;5.6852;
913124056203594;18.0316;24.9612;5.7584;
913124066203594;18.0072;24.9246;5.6974;
913124076203594;17.9706;24.8758;5.7096;
913124086203594;17.9096;24.8392;5.7340;
913124096203594;17.9584;24.8514;5.7096;
913124106203594;17.8608;24.8270;5.8560;
913124116203594;17.7632;24.7904;5.9414;
913124126203594;17.8364;24.8026;5.9170;
913124136203594;17.8730;24.7294;5.8072;
913124146203594;17.8242;24.6806;5.9170;
913124156203594;17.8852;24.6440;5.9536;
913124166203594;18.0560;24.6074;5.6974;
913124176203594;18.0194;24.5220;5.6974;
913124186203594;18.1780;24.4610;5.5998;
913124196203594;18.2024;24.4000;5.6486;
913124206203594;18.1414;24.3512;5.7462;
913124216203594;18.2024;24.3390;5.7950;
913124226203594;18.2756;24.2658;5.7462;
913124236203594;18.2878;24.2414;5.8316;
913124246203594;18.3244;24.1682;5.9536;
913124256203594;18.4586;24.1438;5.9048;
913124266203594;18.4952;24.0950;5.8926;
913124276203594;18.6294;24.0340;5.7462;
913124286203594;18.7148;23.9486;5.6730;
913124296203594;18.6660;23.8998;5.7462;
913124306203594;18.6294;23.8876;5.7950;
913124316203594;18.6904;23.8632;5.6608;
913124326203594;18.5928;23.8266;5.6974;
913124336203594;18.6172;23.8266;5.5632;
913124346203594;18.6172;23.8388;5.4534;
913124356203594;18.5318;23.8266;5.5510;
913124366203594;18.4830;23.8388;5.6242;
913124376203594;18.5562;23.8388;5.5144;
913124386203594;18.5684;23.7900;5.5022;
913124396203594;18.5928;23.7168;5.4900;
913124406203594;18.6782;23.6802;5.3314;
913124416203594;18.6660;23.6558;5.3436;
913124426203594;18.6050;23.6070;5.5144;
913124436203594;18.4708;23.5704;5.4900;
913124446203594;18.4220;23.4972;5.3680;
913124456203594;18.4220;23.4728;5.3192;
913124466203594;18.4464;23.4972;5.2216;
913124476203594;18.4342;23.5582;5.2460;
913124486203594;18.4586;23.5826;5.2094;
913124496203594;18.4952;23.5826;5.1850;
913124506203594;18.5928;23.5948;4.9898;
913124516203594;18.7514;23.6070;4.9898;
913124526203594;18.8368;23.6436;5.0386;
913124536203594;18.8124;23.6314;5.0264;
913124546203594;18.6050;23.6314;5.2704;
913124556203594;18.4830;23.5948;5.4046;
913124566203594;18.3244;23.5948;5.5876;
913124576203594;18.3366;23.6192;5.5876;
913124586203594;18.4342;23.6436;5.4900;
913124596203594;18.4342;23.6558;5.4534;
913124606203594;18.4098;23.6680;5.5022;
913124616203594;18.3854;23.6436;5.5266;
913124626203594;18.5562;23.6436;5.3680;
913124636203594;18.6294;23.6314;5.2582;
913124646203594;18.7514;23.6436;5.1118;
913124656203594;18.6782;23.6314;5.1484;
913124666203594;18.4464;23.5704;5.3802;
913124676203594;18.4830;23.5338;5.3192;
913124686203594;18.4098;23.4972;5.3680;
913124696203594;18.4098;23.4606;5.3802;
913124706203594;18.5318;23.4484;5.2460;
913124716203594;18.4708;23.4362;5.1728;
913124726203594;18.4220;23.3874;5.2338;
913124736203594;18.5074;23.3508;5.1240;
913124746203594;18.7392;23.3264;4.7824;
913124756203594;18.8246;23.3630;4.6604;
913124766203594;18.9710;23.3508;4.3676;
913124776203594;19.0564;23.3752;4.1846;
913124786203594;19.0442;23.3142;4.1236;
913124796203594;19.2516;23.3264;3.9284;
913124806203594;19.3736;23.3264;3.7454;
913124816203594;19.3370;23.3020;3.7332;
913124826203594;19.2394;23.2898;3.8674;
913124836203594;19.2150;23.2532;3.9284;
913124846203594;19.0808;23.2410;4.0626;
913124856203594;19.1174;23.2166;4.0504;
913124866203594;19.0686;23.2410;4.0748;
913124876203594;18.9100;23.2288;4.2212;
913124886203594;18.9222;23.1800;4.2212;
913124896203594;18.8978;23.1800;4.3310;
913124906203594;18.8368;23.1678;4.4774;
913124916203594;18.7636;23.1556;4.4896;
913124926203594;18.7392;23.1556;4.4896;
913124936203594;18.5928;23.1312;4.5872;
913124946203594;18.5806;23.1434;4.5628;
913124956203594;18.6904;23.0946;4.4286;
913124966203594;18.8124;23.0824;4.2334;
913124976203594;18.9344;23.0214;3.9650;
913124986203594;19.0564;23.0092;3.6966;
913124996203594;19.1662;22.9970;3.5258;
913125006203594;19.3126;22.9482;3.4038;
913125016203594;19.4346;22.9360;3.3062;
913125026203594;19.5444;22.8872;3.3062;
913125036203594;19.5444;22.8506;3.3916;
913125046203594;19.5200;22.8262;3.5014;
913125056203594;19.5200;22.8262;3.6112;
913125066203594;19.6420;22.7652;3.5990;
913125076203594;19.6786;22.7042;3.6356;
913125086203594;19.6298;22.6554;3.7088;
913125096203594;19.5932;22.6188;3.8430;
913125106203594;19.6176;22.5822;3.8308;
913125116203594;19.6664;22.5212;3.7210;
913125126203594;19.6664;22.4846;3.6844;
913125136203594;19.6664;22.3870;3.6722;
913125146203594;19.6176;22.3748;3.6600;
913125156203594;19.6298;22.3382;3.6356;
913125166203594;19.7884;22.2894;3.4648;
913125176203594;19.9226;22.2284;3.2696;
913125186203594;19.8860;22.1552;3.2330;
913125196203594;20.0934;22.1552;3.1110;
913125206203594;20.1544;22.1308;3.0378;
913125216203594;20.2642;22.1430;3.0134;
913125226203594;20.3252;22.1064;3.0012;
913125236203594;20.3252;22.0820;2.9646;
913125246203594;20.3008;22.1064;3.1354;
913125256203594;20.1788;22.1064;3.3184;
913125266203594;20.1056;22.1064;3.4526;
913125276203594;19.9958;22.0820;3.6722;
913125286203594;19.8250;22.0210;3.9162;
913125296203594;19.6298;21.9844;4.1114;
913125306203594;19.4834;21.9844;4.3554;
913125316203594;19.3126;21.9722;4.5994;
913125326203594;19.1418;21.9478;4.7824;
913125336203594;19.1052;21.9600;4.7824;
913125346203594;19.1174;21.9600;4.7946;
913125356203594;19.0076;21.9722;4.8556;
913125366203594;19.0808;22.0332;4.7946;
913125376203594;19.0930;22.0942;4.8190;
913125386203594;19.0442;22.1308;4.8556;
913125396203594;18.9710;22.1674;4.9288;
913125406203594;19.0198;22.1674;4.8434;
913125416203594;18.9710;22.1918;4.9898;
913125426203594;18.8734;22.2040;5.1728;
913125436203594;18.8124;22.2040;5.1972;
913125446203594;18.7270;22.1796;5.2460;
913125456203594;18.7392;22.1796;5.1728;
913125466203594;18.8246;22.1552;5.0874;
913125476203594;18.8734;22.1186;5.0264;
913125486203594;18.8612;22.1186;5.0752;
913125496203594;18.9100;22.0942;4.9776;
913125506203594;19.0198;22.0820;4.8556;
913125516203594;18.9954;22.1064;4.8556;
913125526203594;19.1052;22.1064;4.9166;
913125536203594;19.2150;22.1186;4.8068;
913125546203594;19.3126;22.1064;4.6970;
913125556203594;19.4468;22.1064;4.5628;
913125566203594;19.4956;22.0576;4.4530;
913125576203594;19.6298;22.0820;4.3920;
913125586203594;19.7884;22.1186;4.2944;
913125596203594;19.9226;22.0942;4.2334;
913125606203594;19.9714;22.1064;4.1968;
913125616203594;19.9592;22.0820;4.2334;
913125626203594;19.9836;22.0820;4.2090;
913125636203594;20.1422;22.0820;4.0992;
913125646203594;20.2764;22.1186;3.9772;
913125656203594;20.3252;22.0820;3.8064;
913125666203594;20.1178;22.0576;3.8918;
913125676203594;20.0324;22.0332;3.9406;
913125686203594;20.0568;21.9966;3.8064;
913125696203594;20.1788;21.9966;3.6722;
913125706203594;20.2520;22.0332;3.6234;
913125716203594;20.0934;22.0698;3.7820;
913125726203594;19.9592;22.0698;3.9894;
913125736203594;19.9348;22.1064;4.0992;
913125746203594;20.0080;22.1430;4.0260;
913125756203594;20.0690;22.1674;3.9650;
913125766203594;20.0690;22.2040;4.0016;
913125776203594;20.0812;22.2162;4.0016;
913125786203594;20.0690;22.1918;4.0016;
913125796203594;20.1910;22.1430;3.8674;
913125806203594;20.2276;22.1430;3.7576;
913125816203594;20.2276;22.1430;3.7942;
913125826203594;20.2276;22.1064;3.9040;
913125836203594;20.3496;22.1308;3.7332;
913125846203594;20.3496;22.1430;3.7820;
913125856203594;20.2398;22.1064;3.9772;
913125866203594;20.1544;22.0820;4.0382;
913125876203594;20.1788;22.0942;4.0748;
913125886203594;20.3008;22.0820;4.0016;
913125896203594;20.4106;22.0698;3.8918;
913125906203594;20.5082;22.0698;3.7820;
913125916203594;20.4594;22.0820;3.9406;
913125926203594;20.3984;22.0332;4.0138;
913125936203594;20.4472;22.0332;3.9894;
913125946203594;20.5570;22.0332;3.9772;
913125956203594;20.5082;22.0210;4.0138;
913125966203594;20.4716;21.9966;4.0504;
913125976203594;20.3374;21.9966;4.2578;
913125986203594;20.2520;21.9234;4.3432;
913125996203594;20.1910;21.8380;4.4408;
913126006203594;20.2276;21.8258;4.4774;
913126016203594;20.1300;21.7892;4.5750;
913126026203594;20.1422;21.7892;4.6360;
913126036203594;20.1056;21.7648;4.6726;
913126046203594;20.1300;21.7770;4.6848;
913126056203594;20.1300;21.7282;4.6482;
913126066203594;20.1910;21.7526;4.5506;
913126076203594;20.3618;21.7892;4.3188;
913126086203594;20.4716;21.7648;4.1724;
913126096203594;20.6912;21.7526;3.8796;
913126106203594;20.5814;21.7038;3.9284;
913126116203594;20.5692;21.6794;3.9650;
913126126203594;20.5936;21.6306;3.9284;
913126136203594;20.6668;21.6062;3.8186;
913126146203594;20.7278;21.5818;3.7698;
913126156203594;20.5936;21.5086;3.9650;
913126166203594;20.4472;21.4842;4.1114;
913126176203594;20.3252;21.4598;4.4042;
913126186203594;20.4594;21.4354;4.3066;
913126196203594;20.6180;21.4232;4.1846;
913126206203594;20.6668;21.3744;4.2944;
913126216203594;20.7400;21.3378;4.2456;
913126226203594;20.8376;21.3012;4.3188;
913126236203594;21.0816;21.2890;4.1968;
913126246203594;21.2158;21.2402;4.1846;
913126256203594;21.3622;21.1914;4.0992;
913126266203594;21.2890;21.1060;4.2578;
913126276203594;21.2402;21.0206;4.4286;
913126286203594;21.2280;20.9840;4.4896;
913126296203594;21.1792;20.9596;4.6482;
913126306203594;21.1548;20.9108;4.6604;
913126316203594;21.0328;20.8254;4.7214;
913126326203594;20.9718;20.7766;4.8068;
913126336203594;20.8742;20.7034;4.8678;
913126346203594;20.9962;20.7156;4.7092;
913126356203594;21.0816;20.7156;4.5506;
913126366203594;21.1060;20.6546;4.3554;
913126376203594;21.1670;20.5936;4.3188;
913126386203594;21.3134;20.5936;4.1602;
913126396203594;21.4354;20.6180;4.0260;
913126406203594;21.5208;20.6058;3.9528;
913126416203594;21.5940;20.6180;3.8186;
913126426203594;21.4720;20.5936;3.8430;
913126436203594;21.4598;20.5448;3.8796;
913126446203594;21.4476;20.5692;4.0260;
913126456203594;21.4598;20.5570;3.9772;
913126466203594;21.2890;20.5082;4.1602;
913126476203594;21.1548;20.4594;4.3188;
913126486203594;21.1426;20.4472;4.3676;
913126496203594;21.0328;20.4472;4.5994;
913126506203594;21.0084;20.4228;4.8922;
913126516203594;20.8620;20.4350;5.0874;
913126526203594;20.7156;20.4106;5.3070;
913126536203594;20.5814;20.3984;5.6120;
913126546203594;20.4716;20.4106;5.8316;
913126556203594;20.3740;20.4106;6.0268;
913126566203594;20.1544;20.3740;6.2586;
913126576203594;20.0812;20.3374;6.3074;
913126586203594;20.0324;20.3252;6.3196;
913126596203594;19.9470;20.3008;6.4782;
913126606203594;19.8860;20.2764;6.5026;
913126616203594;19.8982;20.3008;6.4172;
913126626203594;19.9958;20.2764;6.2952;
913126636203594;20.1300;20.2764;6.1366;
913126646203594;20.3740;20.3130;5.8682;
913126656203594;20.5814;20.3252;5.6974;
913126666203594;20.6790;20.3374;5.5510;
913126676203594;20.8010;20.3252;5.4290;
913126686203594;20.9596;20.3252;5.3070;
913126696203594;20.8864;20.2642;5.4168;
913126706203594;20.8864;20.2398;5.4778;
913126716203594;20.8376;20.2276;5.4656;
913126726203594;20.8742;20.1422;5.4046;
913126736203594;20.8254;20.1056;5.4534;
913126746203594;20.6668;20.0934;5.6486;
913126756203594;20.6180;20.0934;5.6486;
913126766203594;20.5448;20.0812;5.7706;
913126776203594;20.5448;20.0812;5.8072;
913126786203594;20.3862;20.0446;6.0146;
913126796203594;20.2154;20.0202;6.2952;
913126806203594;20.0934;20.0690;6.5148;
913126816203594;20.1422;20.0812;6.4416;
913126826203594;20.3618;20.0446;6.1976;
913126836203594;20.3862;20.0202;6.2220;
913126846203594;20.4350;20.0446;6.1732;
913126856203594;20.4594;20.0446;6.1976;
913126866203594;20.4106;20.0812;6.2586;
913126876203594;20.5082;20.1300;6.1732;
913126886203594;20.4594;20.1422;6.1854;
913126896203594;20.3130;20.1544;6.3684;
913126906203594;20.1300;20.1544;6.6246;
913126916203594;20.0446;20.1666;6.7100;
913126926203594;19.9348;20.1544;6.8930;
913126936203594;19.9836;20.1910;6.7466;
913126946203594;20.0324;20.1788;6.6612;
913126956203594;19.9592;20.1300;6.7466;
913126966203594;19.9348;20.1056;6.8564;
913126976203594;19.8738;20.1178;6.9906;
913126986203594;19.7640;20.1300;7.0882;
913126996203594;19.6176;20.0934;7.3078;
913127006203594;19.6908;20.1178;7.1858;
913127016203594;19.6054;20.0934;7.2712;
913127026203594;19.6420;20.1056;7.3200;
913127036203594;19.5444;20.1422;7.5518;
913127046203594;19.4346;20.1300;7.6616;
913127056203594;19.3614;20.1544;7.7714;
913127066203594;19.4468;20.1544;7.7836;
913127076203594;19.6908;20.2032;7.5640;
913127086203594;19.5810;20.1910;7.7348;
913127096203594;19.5078;20.1910;7.8934;
913127106203594;19.4468;20.2154;7.9544;
913127116203594;19.5444;20.2398;7.8202;
913127126203594;19.5688;20.2642;7.9300;
913127136203594;19.6054;20.2276;7.8812;
913127146203594;19.5078;20.2154;7.9544;
913127156203594;19.2882;20.2276;8.2472;
913127166203594;19.2150;20.2398;8.2594;
913127176203594;19.1784;20.2520;8.3692;
913127186203594;19.2272;20.2764;8.3814;
913127196203594;19.1418;20.2764;8.4668;
913127206203594;19.1418;20.3130;8.3936;
913127216203594;18.9832;20.3252;8.6254;
913127226203594;18.9100;20.3496;8.7352;
913127236203594;18.8856;20.3618;8.6742;
913127246203594;18.8612;20.3862;8.7230;
913127256203594;18.9100;20.4472;8.6742;
913127266203594;18.8490;20.4716;8.6254;
913127276203594;18.8124;20.4960;8.6010;
913127286203594;18.6904;20.5326;8.6986;
913127296203594;18.7636;20.6302;8.5644;
913127306203594;18.7880;20.6790;8.5156;
913127316203594;18.7758;20.7156;8.5644;
913127326203594;18.7758;20.7644;8.5156;
913127336203594;18.5806;20.8010;8.6132;
913127346203594;18.4708;20.8376;8.6620;
913127356203594;18.3610;20.8498;8.7718;
913127366203594;18.4342;20.9108;8.6742;
913127376203594;18.3732;20.8864;8.6376;
913127386203594;18.3488;20.8986;8.5522;
913127396203594;18.3610;20.9230;8.3326;
913127406203594;18.3976;20.9474;8.2838;
913127416203594;18.4952;20.9718;8.1862;
913127426203594;18.3854;20.9962;8.2716;
913127436203594;18.3854;21.0328;8.1740;
913127446203594;18.4708;21.0206;7.9788;
913127456203594;18.4464;21.0694;7.9544;
913127466203594;18.3610;21.1182;8.0154;
913127476203594;18.2390;21.1670;8.2228;
913127486203594;18.1780;21.1792;8.2228;
913127496203594;18.0926;21.1792;8.2960;
913127506203594;17.9462;21.1792;8.4546;
913127516203594;17.9096;21.1670;8.5766;
913127526203594;17.7266;21.1670;8.8450;
913127536203594;17.7022;21.1670;8.9060;
913127546203594;17.7876;21.2158;8.8572;
913127556203594;17.8364;21.2280;8.7596;
913127566203594;17.9096;21.2402;8.7596;
913127576203594;18.0194;21.2890;8.6498;
913127586203594;18.2512;21.3256;8.3814;
913127596203594;18.3732;21.3866;8.1862;
913127606203594;18.5562;21.4598;7.9422;
913127616203594;18.6782;21.5086;7.7592;
913127626203594;18.8246;21.5330;7.5518;
913127636203594;18.9466;21.5696;7.3932;
913127646203594;18.9954;21.5940;7.2590;
913127656203594;19.0808;21.5940;7.1126;
913127666203594;19.2028;21.6550;7.0150;
913127676203594;19.3980;21.6794;6.8564;
913127686203594;19.2882;21.6428;6.8930;
913127696203594;19.3126;21.6916;6.8442;
913127706203594;19.2882;21.6916;6.9418;
913127716203594;19.3370;21.7038;6.8808;
913127726203594;19.3004;21.7648;6.9174;
913127736203594;19.2638;21.7404;6.9174;
913127746203594;19.2028;21.7648;6.9662;
913127756203594;19.1174;21.8014;7.0516;
913127766203594;19.1174;21.8746;7.0272;
913127776203594;19.0930;21.8746;7.0760;
913127786203594;18.8856;21.9234;7.1736;
913127796203594;18.6294;21.9600;7.4420;
913127806203594;18.4708;21.9600;7.6006;
913127816203594;18.3488;22.0454;7.6372;
913127826203594;18.3854;22.0820;7.5884;
913127836203594;18.3122;22.1308;7.5640;
913127846203594;18.3122;22.1674;7.6006;
913127856203594;18.2878;22.2406;7.6128;
913127866203594;18.3732;22.3016;7.5030;
913127876203594;18.4220;22.3504;7.4908;
913127886203594;18.4342;22.3870;7.4176;
913127896203594;18.4586;22.4358;7.4786;
913127906203594;18.3732;22.4968;7.5518;
913127916203594;18.2634;22.5090;7.6128;
913127926203594;18.3122;22.5822;7.5274;
913127936203594;18.3366;22.5944;7.4664;
913127946203594;18.3610;22.6066;7.3566;
913127956203594;18.4342;22.6554;7.1614;
913127966203594;18.4342;22.7164;7.1004;
913127976203594;18.4342;22.7774;7.0516;
913127986203594;18.4098;22.8262;7.0760;
913127996203594;18.4708;22.8872;6.9418;
913128006203594;18.3366;22.8872;7.0272;
913128016203594;18.1536;22.9238;7.1980;
913128026203594;17.9584;22.9604;7.4786;
913128036203594;17.7876;22.9726;7.6738;
913128046203594;17.7144;22.9848;7.7470;
913128056203594;17.6412;22.9726;7.7714;
913128066203594;17.5924;22.9604;7.7348;
913128076203594;17.3728;22.9360;8.0032;
913128086203594;17.2630;22.9482;8.2228;
913128096203594;17.1166;22.9726;8.3936;
913128106203594;17.0556;22.9726;8.4912;
913128116203594;17.0068;22.9970;8.6132;
913128126203594;16.9946;22.9970;8.6864;
913128136203594;16.8848;23.0092;8.8328;
913128146203594;16.8238;22.9726;8.8328;
913128156203594;17.0190;23.0092;8.5766;
913128166203594;17.1410;23.0092;8.3326;
913128176203594;17.3850;23.0092;8.0398;
913128186203594;17.6412;22.9970;7.6982;
913128196203594;17.8852;22.9970;7.3444;
913128206203594;17.9706;22.9970;7.2102;
913128216203594;18.1414;22.9726;7.0028;
913128226203594;18.1048;22.9970;7.1248;
913128236203594;18.0438;22.9482;7.3322;
913128246203594;18.0072;22.9238;7.4054;
913128256203594;17.8974;22.9482;7.4786;
913128266203594;17.6656;22.9604;7.7714;
913128276203594;17.4094;22.9482;8.0154;
913128286203594;17.4094;22.9726;7.9544;
913128296203594;17.3728;23.0092;7.9788;
913128306203594;17.5070;23.0458;7.6616;
913128316203594;17.5070;23.0824;7.5152;
913128326203594;17.5436;23.1068;7.3078;
913128336203594;17.6778;23.0946;7.0760;
913128346203594;17.8730;23.0946;6.7466;
913128356203594;18.0560;23.0824;6.5636;
913128366203594;17.9584;23.0580;6.6490;
913128376203594;18.0072;23.0580;6.5270;
913128386203594;18.0438;23.0336;6.5514;
913128396203594;18.1414;23.0214;6.3928;
913128406203594;18.2024;22.9726;6.4172;
913128416203594;18.2390;22.9482;6.4172;
913128426203594;18.1658;22.8994;6.4660;
913128436203594;18.1536;22.8628;6.4050;
913128446203594;18.2268;22.8018;6.3074;
913128456203594;18.2756;22.7530;6.2220;
913128466203594;18.3244;22.6920;6.1854;
913128476203594;18.3610;22.7042;6.2098;
913128486203594;18.4464;22.6432;6.1122;
913128496203594;18.3732;22.6188;6.1610;
913128506203594;18.4342;22.6554;6.2220;
913128516203594;18.3366;22.6798;6.3562;
913128526203594;18.2512;22.6920;6.5514;
913128536203594;18.0438;22.7042;6.8442;
913128546203594;17.8852;22.7408;6.9784;
913128556203594;17.7510;22.7408;7.2102;
913128566203594;17.5192;22.7774;7.4664;
913128576203594;17.4582;22.8018;7.6006;
913128586203594;17.3606;22.7652;7.6006;
913128596203594;17.4094;22.7408;7.5152;
913128606203594;17.4094;22.7164;7.4908;
913128616203594;17.5436;22.7042;7.3078;
913128626203594;17.6046;22.6920;7.2834;
913128636203594;17.6900;22.6432;7.1004;
913128646203594;17.7754;22.6798;7.0028;
913128656203594;17.8242;22.6554;7.0028;
913128666203594;17.9218;22.7042;6.8808;
913128676203594;17.8974;22.7164;6.9906;
913128686203594;17.9828;22.7286;6.8686;
913128696203594;17.8852;22.6432;6.9662;
913128706203594;17.8608;22.6066;7.0150;
913128716203594;17.7876;22.5456;7.0272;
913128726203594;17.7266;22.4846;7.1614;
913128736203594;17.5924;22.3992;7.2468;
913128746203594;17.4460;22.3382;7.4908;
913128756203594;17.3240;22.2772;7.6494;
913128766203594;17.0922;22.2284;7.8690;
913128776203594;17.1166;22.3016;7.9666;
913128786203594;17.2508;22.2528;7.9178;
913128796203594;17.3850;22.2284;7.8324;
913128806203594;17.5680;22.2040;7.6616;
913128816203594;17.7388;22.2162;7.4542;
913128826203594;17.9462;22.1918;7.2224;
913128836203594;18.2512;22.1552;6.9418;
913128846203594;18.6050;22.0942;6.6124;
913128856203594;18.9222;22.0210;6.2464;
913128866203594;19.1174;22.0576;5.9658;
913128876203594;19.1784;22.0454;5.9292;
913128886203594;19.1540;22.0332;5.9170;
913128896203594;19.2150;21.9844;5.9536;
913128906203594;19.2150;21.9478;5.9902;
913128916203594;19.1540;21.9356;6.0024;
913128926203594;19.0930;21.9112;6.1244;
913128936203594;19.0076;21.8624;6.1976;
913128946203594;18.8734;21.7770;6.3318;
913128956203594;18.8734;21.7404;6.3806;
913128966203594;18.8490;21.6916;6.4904;
913128976203594;18.7270;21.6916;6.6368;
913128986203594;18.6782;21.6428;6.7222;
913128996203594;18.7270;21.6062;6.7588;
913129006203594;18.7758;21.6184;6.7588;
913129016203594;18.7636;21.5818;6.8808;
913129026203594;18.6538;21.5818;7.0882;
913129036203594;18.5318;21.5574;7.2102;
913129046203594;18.5684;21.5574;7.2346;
913129056203594;18.6416;21.4964;7.1614;
913129066203594;18.6538;21.5086;7.2102;
913129076203594;18.6538;21.4598;7.1858;
913129086203594;18.6294;21.3988;7.2224;
913129096203594;18.5440;21.4110;7.2956;
913129106203594;18.5928;21.4110;7.2834;
913129116203594;18.6782;21.3988;7.1858;
913129126203594;18.7026;21.3866;7.1370;
913129136203594;18.6538;21.3988;7.1492;
913129146203594;18.5074;21.3744;7.2224;
913129156203594;18.4220;21.3866;7.3322;
913129166203594;18.3854;21.3622;7.3322;
913129176203594;18.3366;21.3134;7.3566;
913129186203594;18.2634;21.2768;7.4054;
913129196203594;18.1414;21.2646;7.5884;
913129206203594;18.0438;21.2280;7.7348;
913129216203594;18.0804;21.2158;7.7836;
913129226203594;18.2878;21.2524;7.6250;
913129236203594;18.3488;21.2402;7.5274;
913129246203594;18.3488;21.2768;7.5884;
913129256203594;18.4098;21.3012;7.5518;
913129266203594;18.5074;21.2890;7.4054;
913129276203594;18.6660;21.2768;7.2590;
913129286203594;18.7636;21.3012;7.0394;
913129296203594;18.8734;21.3012;6.8930;
913129306203594;18.9954;21.2890;6.7100;
913129316203594;19.0198;21.2890;6.6612;
913129326203594;19.0686;21.3012;6.5270;
913129336203594;19.1418;21.2890;6.3318;
913129346203594;19.1418;21.2890;6.2586;
913129356203594;19.2028;21.3256;6.1976;
913129366203594;19.2150;21.2890;6.1854;
913129376203594;19.1784;21.3012;6.1732;
913129386203594;18.9954;21.3012;6.3196;
913129396203594;18.8734;21.2646;6.3806;
913129406203594;18.6904;21.2524;6.5514;
913129416203594;18.4952;21.2768;6.7344;
913129426203594;18.3000;21.3134;6.9906;
913129436203594;17.9706;21.2402;7.1126;
913129446203594;17.7632;21.2768;7.2834;
913129456203594;17.5680;21.2524;7.5030;
913129466203594;17.4460;21.2768;7.7104;
913129476203594;17.3850;21.3378;7.8324;
913129486203594;17.4094;21.3988;7.8568;
913129496203594;17.3484;21.3988;7.9910;
913129506203594;17.4704;21.4232;7.8934;
913129516203594;17.6656;21.5452;7.8446;
913129526203594;17.7510;21.5818;7.8934;
913129536203594;17.7754;21.6184;7.8690;
913129546203594;17.7876;21.6672;7.7348;
913129556203594;17.8242;21.7160;7.7104;
913129566203594;17.7632;21.7404;7.6738;
913129576203594;17.8608;21.8136;7.4908;
913129586203594;17.8364;21.8502;7.4664;
913129596203594;17.6046;21.8868;7.7714;
913129606203594;17.4094;21.9356;7.9300;
913129616203594;17.3240;21.9966;7.9910;
913129626203594;17.1532;22.0088;8.2106;
913129636203594;17.0434;22.0332;8.3814;
913129646203594;16.9580;22.0576;8.5522;
913129656203594;16.8116;22.0942;8.6986;
913129666203594;16.5920;22.1064;8.8816;
913129676203594;16.6652;22.1186;8.6620;
913129686203594;16.8726;22.1308;8.3814;
913129696203594;17.0922;22.1796;7.9910;
913129706203594;17.4582;22.2650;7.5762;
913129716203594;17.7388;22.2650;7.1492;
913129726203594;17.9584;22.2650;6.8320;
913129736203594;18.0926;22.3016;6.7222;
913129746203594;18.2390;22.3504;6.5880;
913129756203594;18.2756;22.4114;6.6002;
913129766203594;18.2268;22.4480;6.5636;
913129776203594;18.1780;22.4480;6.7222;
913129786203594;18.1292;22.4480;6.7832;
913129796203594;18.0316;22.4846;6.8564;
913129806203594;18.0438;22.5212;6.8442;
913129816203594;17.8974;22.4724;6.9784;
913129826203594;17.7388;22.4114;7.1614;
913129836203594;17.6412;22.3748;7.2956;
913129846203594;17.4582;22.3138;7.4908;
913129856203594;17.4582;22.3138;7.4542;
913129866203594;17.3240;22.3382;7.5762;
913129876203594;17.2630;22.3626;7.6982;
913129886203594;17.1898;22.4358;7.7836;
913129896203594;17.2874;22.5334;7.7348;
913129906203594;17.6046;22.6188;7.3566;
913129916203594;17.8364;22.6432;6.9540;
913129926203594;18.1048;22.7408;6.6612;
913129936203594;18.1658;22.8018;6.5758;
913129946203594;18.2390;22.8018;6.3318;
913129956203594;18.2512;22.8018;6.3196;
913129966203594;18.2634;22.7652;6.2464;
913129976203594;18.3122;22.7286;6.1000;
913129986203594;18.2390;22.7286;6.0878;
913129996203594;18.1658;22.7408;6.2464;
913130006203594;18.1780;22.7408;6.2342;
913130016203594;18.2390;22.7042;6.2220;
913130026203594;18.3732;22.6798;6.2220;
913130036203594;18.6172;22.6798;5.9292;
913130046203594;18.8856;22.6798;5.6364;
913130056203594;19.0564;22.7042;5.3436;
913130066203594;19.2028;22.7164;5.2704;
913130076203594;19.2760;22.7286;5.1972;
913130086203594;19.3004;22.7286;5.1606;
913130096203594;19.2516;22.7286;5.1972;
913130106203594;19.2272;22.7408;5.2948;
913130116203594;19.1662;22.7530;5.3436;
913130126203594;19.1418;22.7530;5.3558;
913130136203594;19.1662;22.7042;5.3802;
913130146203594;19.0930;22.6920;5.4168;
913130156203594;19.2394;22.6920;5.2948;
913130166203594;19.3614;22.7164;5.0996;
913130176203594;19.3858;22.7652;5.1118;
913130186203594;19.3126;22.7408;5.1240;
913130196203594;19.3004;22.7408;5.1850;
913130206203594;19.1784;22.7530;5.4168;
913130216203594;19.0198;22.8018;5.6486;
913130226203594;18.9222;22.8140;5.8804;
913130236203594;18.6660;22.7896;6.1854;
913130246203594;18.5440;22.7774;6.4660;
913130256203594;18.4830;22.7774;6.6002;
913130266203594;18.4952;22.8140;6.6490;
913130276203594;18.4220;22.8628;6.8930;
913130286203594;18.4220;22.8628;6.9784;
913130296203594;18.4952;22.8628;7.0028;
913130306203594;18.6050;22.8384;6.8930;
913130316203594;18.7270;22.8750;6.7588;
913130326203594;18.7148;22.8628;6.7222;
913130336203594;18.7392;22.8628;6.6978;
913130346203594;18.6172;22.8262;6.7222;
913130356203594;18.5684;22.8140;6.6490;
913130366203594;18.4464;22.7896;6.6368;
913130376203594;18.3610;22.7896;6.7588;
913130386203594;18.3366;22.8140;6.9052;
913130396203594;18.2634;22.8018;6.9906;
913130406203594;18.2512;22.7774;7.1248;
913130416203594;18.1048;22.7774;7.1614;
913130426203594;18.0438;22.8018;7.2468;
913130436203594;18.0682;22.7652;7.3688;
913130446203594;18.0926;22.7408;7.3200;
913130456203594;18.1536;22.7530;7.2956;
913130466203594;18.0926;22.7408;7.2834;
913130476203594;17.9706;22.7042;7.5030;
913130486203594;17.9096;22.7164;7.6494;
913130496203594;17.9096;22.6798;7.8202;
913130506203594;18.0194;22.6676;7.8934;
913130516203594;18.0682;22.6920;7.8690;
913130526203594;18.1780;22.7530;7.8202;
913130536203594;18.2268;22.7774;7.6738;
913130546203594;18.2634;22.7774;7.5762;
913130556203594;18.5440;22.8506;7.2468;
913130566203594;18.6050;22.9482;7.0638;
913130576203594;18.7148;22.9970;6.9540;
913130586203594;18.7880;23.0580;6.9174;
913130596203594;18.7758;23.1434;6.9418;
913130606203594;18.6416;23.1190;7.0638;
913130616203594;18.4464;23.0946;7.3932;
913130626203594;18.3488;23.1434;7.5762;
913130636203594;18.1048;23.1312;7.9056;
913130646203594;17.9950;23.0824;7.9544;
913130656203594;17.9096;23.0702;7.9300;
913130666203594;17.8974;23.0702;7.8324;
913130676203594;17.8608;23.0580;7.7592;
913130686203594;17.8730;23.0946;7.7226;
913130696203594;17.9706;23.1190;7.4664;
913130706203594;18.0682;23.1312;7.3078;
913130716203594;18.2634;23.1800;6.9174;
913130726203594;18.3854;23.2044;6.7832;
913130736203594;18.4952;23.2532;6.6856;
913130746203594;18.5074;23.2410;6.5758;
913130756203594;18.4708;23.2532;6.6124;
913130766203594;18.4464;23.2654;6.7222;
913130776203594;18.3244;23.2532;6.7954;
913130786203594;18.1902;23.2410;6.8686;
913130796203594;17.9462;23.1800;7.1980;
913130806203594;17.7998;23.2166;7.3322;
913130816203594;17.6656;23.1800;7.4054;
913130826203594;17.5070;23.1800;7.5152;
913130836203594;17.3606;23.1678;7.6128;
913130846203594;17.2874;23.1800;7.5640;
913130856203594;17.2386;23.2166;7.6128;
913130866203594;17.1898;23.2532;7.6372;
913130876203594;17.1898;23.3142;7.5518;
913130886203594;17.0922;23.3630;7.6250;
913130896203594;17.2264;23.4118;7.5030;
913130906203594;17.4338;23.4362;7.2834;
913130916203594;17.6900;23.4484;7.0028;
913130926203594;17.8242;23.4484;6.7710;
913130936203594;17.9462;23.4484;6.5636;
913130946203594;18.0804;23.4362;6.4050;
913130956203594;18.2634;23.4484;6.1122;
913130966203594;18.4586;23.4362;5.8438;
913130976203594;18.4464;23.4484;5.7706;
913130986203594;18.2878;23.4484;5.9170;
913130996203594;18.2024;23.4484;5.9292;
913131006203594;18.1170;23.4484;6.0634;
913131016203594;18.1292;23.4606;6.0390;
913131026203594;18.0438;23.4606;6.1000;
913131036203594;17.8852;23.4362;6.3196;
913131046203594;17.7876;23.4606;6.3928;
913131056203594;17.6534;23.4484;6.5636;
913131066203594;17.6534;23.4362;6.5148;
913131076203594;17.6046;23.4606;6.4782;
913131086203594;17.6290;23.4728;6.4050;
913131096203594;17.6290;23.4728;6.3562;
913131106203594;17.7144;23.4850;6.1976;
913131116203594;17.7510;23.5216;6.1000;
913131126203594;17.7388;23.5094;6.1366;
913131136203594;17.8120;23.4972;5.9536;
913131146203594;17.8608;23.5216;5.8926;
913131156203594;17.8974;23.4972;5.9170;
913131166203594;17.9340;23.5338;5.8438;
913131176203594;18.0194;23.5460;5.8072;
913131186203594;18.0072;23.5460;5.8682;
913131196203594;18.0804;23.5216;5.7828;
913131206203594;18.2878;23.5216;5.5876;
913131216203594;18.4342;23.5216;5.4900;
913131226203594;18.5928;23.5216;5.3314;
913131236203594;18.7392;23.5460;5.2460;
913131246203594;18.8978;23.5094;5.0630;
913131256203594;18.9954;23.4972;4.9776;
913131266203594;19.0686;23.4850;4.8190;
913131276203594;19.2028;23.4728;4.6482;
913131286203594;19.2028;23.4606;4.5506;
913131296203594;19.1662;23.4118;4.5506;
913131306203594;19.1296;23.3874;4.5872;
913131316203594;19.2150;23.3630;4.3798;
913131326203594;19.2516;23.3630;4.3554;
913131336203594;19.1784;23.3386;4.3432;
913131346203594;19.2638;23.3386;4.2700;
913131356203594;19.3004;23.3264;4.2822;
913131366203594;19.3492;23.3264;4.2456;
913131376203594;19.3370;23.3142;4.2700;
913131386203594;19.4224;23.3142;4.1846;
913131396203594;19.3370;23.3142;4.2700;
913131406203594;19.2760;23.2532;4.3188;
913131416203594;19.2882;23.2410;4.4408;
913131426203594;19.2394;23.1678;4.5018;
913131436203594;19.2028;23.1190;4.4774;
913131446203594;19.1540;23.0702;4.4652;
913131456203594;19.2516;23.0580;4.3310;
913131466203594;19.3004;23.0336;4.2700;
913131476203594;19.4956;23.0092;4.1358;
913131486203594;19.6298;22.9848;3.9772;
913131496203594;19.8494;22.9726;3.6112;
913131506203594;20.0324;22.9726;3.4770;
913131516203594;20.1422;22.9604;3.4770;
913131526203594;20.2154;22.9238;3.4892;
913131536203594;20.2398;22.8872;3.6356;
913131546203594;20.1910;22.7896;3.7576;
913131556203594;20.0812;22.6920;3.9040;
913131566203594;20.0446;22.6432;4.1114;
913131576203594;20.0080;22.5578;4.2822;
913131586203594;19.9836;22.4480;4.4896;
913131596203594;19.8494;22.3626;4.5994;
913131606203594;19.8982;22.3016;4.7092;
913131616203594;19.9348;22.2162;4.6604;
913131626203594;19.9714;22.1674;4.6970;
913131636203594;20.1178;22.0942;4.6360;
913131646203594;20.2764;22.0210;4.5140;
913131656203594;20.3130;21.9600;4.5872;
913131666203594;20.4594;21.9112;4.5018;
913131676203594;20.6058;21.8258;4.4896;
913131686203594;20.5936;21.6794;4.6238;
913131696203594;20.5570;21.6062;4.8678;
913131706203594;20.5448;21.5452;4.9532;
913131716203594;20.4594;21.5208;5.1972;
913131726203594;20.4960;21.4598;5.2704;
913131736203594;20.5814;21.3866;5.2582;
913131746203594;20.4472;21.3500;5.4778;
913131756203594;20.4350;21.3134;5.5754;
913131766203594;20.5448;21.3256;5.5510;
913131776203594;20.6546;21.3012;5.5388;
913131786203594;20.6546;21.2768;5.6486;
913131796203594;20.6058;21.2524;5.6974;
913131806203594;20.4594;21.2036;5.9536;
913131816203594;20.3618;21.1670;6.1244;
913131826203594;20.3618;21.1060;6.1122;
913131836203594;20.5204;21.1182;6.0634;
913131846203594;20.5692;21.0694;6.0146;
913131856203594;20.6180;21.0450;5.8804;
913131866203594;20.7766;21.0206;5.8072;
913131876203594;20.9840;20.9718;5.6974;
913131886203594;21.0938;20.9108;5.6608;
913131896203594;21.1792;20.8986;5.6608;
913131906203594;21.2402;20.9108;5.6120;
913131916203594;21.1426;20.8254;5.7096;
913131926203594;21.0572;20.8132;5.8926;
913131936203594;21.0572;20.7644;6.0268;
913131946203594;20.9352;20.7644;6.0878;
913131956203594;20.8254;20.7766;6.2342;
913131966203594;20.6302;20.8132;6.3806;
913131976203594;20.4960;20.7888;6.5880;
913131986203594;20.2032;20.7766;7.0394;
913131996203594;19.9836;20.7766;7.3688;
913132006203594;19.8738;20.7644;7.5640;
913132016203594;19.6420;20.7522;7.8934;
913132026203594;19.4468;20.7156;8.2472;
913132036203594;19.1662;20.6180;8.6376;
913132046203594;19.1052;20.5936;8.8084;
913132056203594;19.0442;20.5448;8.8328;
913132066203594;19.1906;20.5082;8.7352;
913132076203594;19.3248;20.5326;8.6254;
913132086203594;19.3370;20.5082;8.5400;
913132096203594;19.4834;20.5448;8.3814;
913132106203594;19.5810;20.4716;8.3082;
913132116203594;19.6786;20.4838;8.1984;
913132126203594;19.8006;20.5082;8.1252;
913132136203594;19.7884;20.5692;8.1374;
913132146203594;19.7274;20.5692;8.2106;
913132156203594;19.6908;20.5814;8.2594;
913132166203594;19.7274;20.6424;8.2228;
913132176203594;19.6786;20.6424;8.1984;
913132186203594;19.6908;20.7400;8.1496;
913132196203594;19.4224;20.7766;8.5156;
913132206203594;19.5078;20.7400;8.3204;
913132216203594;19.7030;20.7644;8.1130;
913132226203594;19.9226;20.8132;7.7836;
913132236203594;20.1178;20.7888;7.5274;
913132246203594;20.3130;20.7766;7.3200;
913132256203594;20.5082;20.8254;7.1248;
913132266203594;20.7156;20.8010;6.8686;
913132276203594;21.2524;20.8376;6.1610;
913132286203594;21.3988;20.8742;6.0268;
913132296203594;21.5086;20.8498;5.8438;
913132306203594;21.6550;20.8498;5.7340;
913132316203594;21.6428;20.8376;5.7706;
913132326203594;21.5940;20.8132;5.8072;
913132336203594;21.5208;20.7766;5.8682;
913132346203594;21.5086;20.7522;5.7828;
913132356203594;21.4110;20.6668;5.8926;
913132366203594;21.2646;20.6424;6.0756;
913132376203594;21.0572;20.6180;6.3074;
913132386203594;20.8254;20.5936;6.5148;
913132396203594;20.8376;20.6058;6.5026;
913132406203594;20.8132;20.5936;6.5148;
913132416203594;20.7888;20.5570;6.4172;
913132426203594;20.7156;20.5326;6.5148;
913132436203594;20.6790;20.5692;6.5148;
913132446203594;20.7522;20.5570;6.2708;
913132456203594;20.8498;20.5448;6.1610;
913132466203594;20.9352;20.5204;6.0878;
913132476203594;20.8254;20.4350;6.1976;
913132486203594;20.8620;20.3984;6.2342;
913132496203594;20.8620;20.3862;6.3318;
913132506203594;20.8498;20.3984;6.3684;
913132516203594;20.9474;20.3984;6.2952;
913132526203594;20.8498;20.3984;6.5392;
913132536203594;20.8132;20.3740;6.6368;
913132546203594;20.7156;20.3374;6.7344;
913132556203594;20.7156;20.4106;6.7466;
913132566203594;20.6302;20.4594;6.7466;
913132576203594;20.6912;20.4350;6.7954;
913132586203594;20.7644;20.3984;6.6612;
913132596203594;20.6912;20.3984;6.7832;
913132606203594;20.7156;20.3740;6.8076;
913132616203594;20.6546;20.3862;6.8930;
913132626203594;20.6180;20.4716;7.0394;
913132636203594;20.4350;20.4350;7.2468;
913132646203594;20.2764;20.4350;7.5152;
913132656203594;20.0080;20.4838;7.7470;
913132666203594;19.8250;20.5082;8.0764;
913132676203594;19.7640;20.5082;8.2350;
913132686203594;19.6054;20.5326;8.4302;
913132696203594;19.4590;20.5570;8.5644;
913132706203594;19.4712;20.5204;8.5644;
913132716203594;19.4468;20.5448;8.6376;
913132726203594;19.4102;20.5936;8.6986;
913132736203594;19.4224;20.6302;8.7474;
913132746203594;19.2882;20.6668;8.9060;
913132756203594;19.1174;20.6668;9.0402;
913132766203594;19.0320;20.6912;9.0890;
913132776203594;19.1174;20.7034;9.0158;
913132786203594;19.2272;20.7888;8.8450;
913132796203594;19.4224;20.8498;8.6132;
913132806203594;19.7274;20.8620;8.2594;
913132816203594;19.8616;20.8986;8.0764;
913132826203594;20.0812;20.9596;7.7958;
913132836203594;20.3008;21.0206;7.4664;
913132846203594;20.5326;21.0694;7.1492;
913132856203594;20.6668;21.1548;6.9540;
913132866203594;20.6424;21.1670;6.8930;
913132876203594;20.5692;21.1914;6.8076;
913132886203594;20.3862;21.2158;6.8930;
913132896203594;20.3618;21.2036;6.8564;
913132906203594;20.2276;21.1792;7.0516;
913132916203594;20.1300;21.2402;7.1492;
913132926203594;19.8738;21.2402;7.4298;
913132936203594;19.5810;21.1792;7.7958;
913132946203594;19.3126;21.1670;8.1252;
913132956203594;19.1906;21.1792;8.3570;
913132966203594;18.9954;21.1426;8.5034;
913132976203594;18.8368;21.1426;8.5644;
913132986203594;18.7758;21.1548;8.5278;
913132996203594;18.6782;21.1304;8.6498;
913133006203594;18.8002;21.1914;8.5522;
913133016203594;18.9710;21.2646;8.2716;
913133026203594;19.0442;21.2768;8.1374;
913133036203594;19.2760;21.3378;7.8934;
913133046203594;19.5200;21.3988;7.6982;
913133056203594;19.8128;21.4476;7.4298;
913133066203594;19.9714;21.5330;7.2590;
913133076203594;20.0934;21.5452;7.0516;
913133086203594;20.1422;21.5696;6.9540;
913133096203594;20.2154;21.5940;6.9174;
913133106203594;20.4228;21.6794;6.6124;
913133116203594;20.3130;21.7038;6.7344;
913133126203594;20.1544;21.7282;6.8442;
913133136203594;20.0446;21.7648;6.8808;
913133146203594;20.0324;21.8014;6.8320;
913133156203594;20.0202;21.8258;6.7832;
913133166203594;20.0202;21.8502;6.6612;
913133176203594;19.9836;21.8746;6.6246;
913133186203594;19.9836;21.8868;6.6124;
913133196203594;20.2398;21.9356;6.1366;
913133206203594;20.3618;21.9844;6.0146;
913133216203594;20.4594;22.0454;5.8926;
913133226203594;20.6912;22.0820;5.5876;
913133236203594;20.9352;22.1552;5.2704;
913133246203594;21.0816;22.2040;5.0874;
913133256203594;21.2402;22.2650;4.8800;
913133266203594;21.2890;22.2650;4.8068;
913133276203594;21.1182;22.2284;5.0508;
913133286203594;21.1548;22.2040;4.9044;
913133296203594;21.0938;22.1674;5.0020;
913133306203594;20.8986;22.1552;5.2338;
913133316203594;20.6912;22.1186;5.5144;
913133326203594;20.5082;22.0698;5.7584;
913133336203594;20.2276;22.0332;6.0146;
913133346203594;20.0446;22.0332;6.1854;
913133356203594;20.0324;22.0332;6.2098;
913133366203594;19.9592;22.0332;6.3684;
913133376203594;19.9836;22.0942;6.2586;
913133386203594;20.0202;22.1308;6.1854;
913133396203594;20.1056;22.1308;6.0512;
913133406203594;20.1422;22.1430;6.0634;
913133416203594;20.2764;22.1430;5.9780;
913133426203594;20.3496;22.1430;5.9780;
913133436203594;20.2886;22.1430;6.0268;
913133446203594;20.2520;22.0942;6.0878;
913133456203594;20.0812;22.0210;6.3684;
913133466203594;20.1056;21.9356;6.3562;
913133476203594;20.0934;21.9234;6.4782;
913133486203594;20.0934;21.9356;6.4782;
913133496203594;20.0934;21.9234;6.4782;
913133506203594;20.1910;21.8868;6.4782;
913133516203594;20.3008;21.8380;6.4172;
913133526203594;20.4594;21.8868;6.3684;
913133536203594;20.6302;21.8502;6.2830;
913133546203594;20.6546;21.8380;6.2952;
913133556203594;20.7156;21.7770;6.2708;
913133566203594;20.8498;21.7526;6.2220;
913133576203594;20.9352;21.7282;6.2952;
913133586203594;20.8620;21.7404;6.3928;
913133596203594;20.8742;21.7404;6.3562;
913133606203594;20.8986;21.7282;6.3684;
913133616203594;20.9962;21.7526;6.2830;
913133626203594;21.0694;21.7404;6.3928;
913133636203594;21.1060;21.7282;6.4904;
913133646203594;21.1060;21.6794;6.4172;
913133656203594;21.1670;21.6794;6.4172;
913133666203594;21.4598;21.6672;6.1122;
913133676203594;21.5818;21.6428;6.0878;
913133686203594;21.7526;21.5818;5.9536;
913133696203594;21.8136;21.5208;5.8926;
913133706203594;21.9478;21.4720;5.7950;
913133716203594;22.0210;21.4110;5.6974;
913133726203594;22.1796;21.3500;5.6608;
913133736203594;22.2406;21.2280;5.6486;
913133746203594;22.2650;21.0816;5.6120;
913133756203594;22.3992;20.9230;5.5998;
913133766203594;22.3870;20.7888;5.5632;
913133776203594;22.4114;20.6546;5.5510;
913133786203594;22.3748;20.4716;5.6242;
913133796203594;22.4480;20.3496;5.5144;
913133806203594;22.4602;20.1788;5.6242;
913133816203594;22.6554;20.0324;5.3802;
913133826203594;22.8140;19.8982;5.3070;
913133836203594;22.9848;19.8128;5.1362;
913133846203594;23.1800;19.6786;5.0142;
913133856203594;23.3386;19.5444;4.9288;
913133866203594;23.4240;19.4712;4.9532;
913133876203594;23.4240;19.3492;5.0508;
913133886203594;23.5948;19.3370;4.9532;
913133896203594;23.5704;19.3004;5.0874;
913133906203594;23.3630;19.2394;5.4168;
913133916203594;23.1434;19.2028;5.7828;
913133926203594;22.9360;19.2028;6.1000;
913133936203594;22.8018;19.2272;6.4782;
913133946203594;22.7164;19.2516;6.5514;
913133956203594;22.6554;19.2638;6.8076;
913133966203594;22.4480;19.2638;7.0882;
913133976203594;22.2772;19.2638;7.4176;
913133986203594;22.2040;19.3004;7.6860;
913133996203594;22.1308;19.3736;7.8080;
913134006203594;22.0698;19.4346;8.0642;
913134016203594;22.0088;19.5444;8.0642;
913134026203594;22.0210;19.6298;8.1740;
913134036203594;22.0576;19.7884;8.2106;
913134046203594;21.9966;19.8982;8.3204;
913134056203594;22.0088;20.0202;8.3692;
913134066203594;21.8746;20.1788;8.4668;
913134076203594;21.7770;20.3252;8.6742;
913134086203594;21.6428;20.4472;8.8084;
913134096203594;21.4964;20.5814;9.1134;
913134106203594;21.0938;20.7278;9.6014;
913134116203594;20.7278;20.8132;9.9430;
913134126203594;20.4960;20.9596;10.2114;
913134136203594;20.1910;21.0572;10.5896;
913134146203594;20.0812;21.1304;10.8214;
913134156203594;19.7640;21.2158;11.2484;
913134166203594;19.3736;21.2890;11.7364;
913134176203594;19.0076;21.3256;12.1512;
913134186203594;18.8856;21.3622;12.2976;
913134196203594;18.7880;21.4232;12.5172;
913134206203594;18.6294;21.4232;12.7734;
913134216203594;18.4708;21.4354;12.9076;
913134226203594;18.3244;21.4720;13.0906;
913134236203594;18.2634;21.4354;13.1272;
913134246203594;18.5440;21.4232;12.8588;
913134256203594;18.6660;21.3988;12.6636;
913134266203594;18.7758;21.3744;12.5050;
913134276203594;18.8002;21.3378;12.3952;
913134286203594;18.7270;21.3134;12.3464;
913134296203594;18.7392;21.2890;12.2244;
913134306203594;18.6294;21.2524;12.2732;
913134316203594;18.5196;21.2402;12.2854;
913134326203594;18.2512;21.2158;12.3708;
913134336203594;18.1902;21.2524;12.2976;
913134346203594;18.0804;21.2524;12.2976;
913134356203594;18.0194;21.2646;12.2488;
913134366203594;17.9950;21.3134;12.1512;
913134376203594;18.1170;21.3988;11.9682;
913134386203594;18.3366;21.4598;11.5778;
913134396203594;18.5440;21.5452;11.1386;
913134406203594;18.7514;21.6184;10.7848;
913134416203594;18.7514;21.6306;10.5896;
913134426203594;18.7270;21.6550;10.3944;
913134436203594;18.8856;21.7282;9.9674;
913134446203594;19.0442;21.7404;9.5404;
913134456203594;18.8978;21.7526;9.5038;
913134466203594;18.8246;21.7892;9.3940;
913134476203594;18.7514;21.8136;9.2354;
913134486203594;18.6294;21.8746;9.2842;
913134496203594;18.6172;21.9356;9.1744;
913134506203594;18.6538;22.0088;9.1378;
913134516203594;18.4708;22.0576;9.2598;
913134526203594;18.3610;22.1308;9.2720;
913134536203594;18.3854;22.1552;9.1012;
913134546203594;18.2146;22.1552;9.0646;
913134556203594;18.2756;22.1796;9.0280;
913134566203594;18.4098;22.1918;8.6620;
913134576203594;18.4830;22.2162;8.3814;
913134586203594;18.6416;22.2650;7.9178;
913134596203594;18.8246;22.2650;7.5152;
913134606203594;18.9832;22.3016;7.2956;
913134616203594;19.0320;22.3260;7.1370;
913134626203594;19.1418;22.3504;6.9418;
913134636203594;19.1418;22.3504;6.8808;
913134646203594;19.0076;22.3260;7.0516;
913134656203594;19.0930;22.3504;6.9906;
913134666203594;19.0442;22.3260;7.1126;
913134676203594;19.0320;22.3260;7.1858;
913134686203594;18.9588;22.2650;7.2468;
913134696203594;19.0442;22.2650;7.0516;
913134706203594;19.2028;22.2528;6.9296;
913134716203594;19.3614;22.2406;6.7832;
913134726203594;19.5810;22.2284;6.4538;
913134736203594;19.7396;22.2040;6.2220;
913134746203594;19.8372;22.1552;6.0024;
913134756203594;19.9104;22.1186;5.8560;
913134766203594;20.1544;22.0942;5.5632;
913134776203594;20.2642;22.0454;5.3924;
913134786203594;20.3252;21.9966;5.2582;
913134796203594;20.3130;21.9722;5.1484;
913134806203594;20.2642;21.9478;5.1850;
913134816203594;20.0934;21.8624;5.4656;
913134826203594;19.9348;21.8258;5.5998;
913134836203594;19.8616;21.7648;5.7584;
913134846203594;19.6298;21.6916;5.8926;
913134856203594;19.3492;21.6062;6.3318;
913134866203594;19.1296;21.4598;6.6246;
913134876203594;18.8978;21.3500;6.8808;
913134886203594;18.7880;21.3012;7.0760;
913134896203594;18.6172;21.1914;7.2102;
913134906203594;18.4098;21.0572;7.4298;
913134916203594;18.2512;20.9474;7.5030;
913134926203594;18.0926;20.8254;7.7104;
913134936203594;18.1414;20.7644;7.5518;
913134946203594;18.1414;20.7156;7.4664;
913134956203594;18.2390;20.5936;7.2590;
913134966203594;18.1780;20.4594;7.2590;
913134976203594;18.2756;20.4350;6.9784;
913134986203594;18.4464;20.4106;6.8076;
913134996203594;18.5440;20.3984;6.7710;
913135006203594;18.6660;20.3740;6.7466;
913135016203594;18.7270;20.3374;6.7466;
913135026203594;18.8734;20.3252;6.6978;
913135036203594;19.1418;20.3740;6.6490;
913135046203594;19.3736;20.3862;6.5270;
913135056203594;19.4956;20.3496;6.7710;
913135066203594;19.5932;20.3008;6.9052;
913135076203594;19.6786;20.3130;6.9784;
913135086203594;19.7762;20.3130;6.9906;
913135096203594;19.7518;20.2642;7.1736;
913135106203594;19.5810;20.2398;7.4420;
913135116203594;19.3492;20.2032;7.7104;
913135126203594;19.3492;20.1544;7.8324;
913135136203594;19.3004;20.1178;7.9056;
913135146203594;19.2516;20.0812;8.0276;
913135156203594;19.1052;20.0324;8.2838;
913135166203594;19.0320;19.9348;8.4302;
913135176203594;19.1296;19.9470;8.4912;
913135186203594;19.2394;19.9104;8.4790;
913135196203594;19.1906;19.8494;8.6376;
913135206203594;19.0442;19.7762;8.9060;
913135216203594;18.8978;19.7030;9.0280;
913135226203594;18.8612;19.6786;9.1866;
913135236203594;18.9466;19.6298;9.1622;
913135246203594;18.7758;19.6298;9.2598;
913135256203594;18.6660;19.5932;9.2720;
913135266203594;18.5196;19.5810;9.3818;
913135276203594;18.4952;19.6054;9.4794;
913135286203594;18.4098;19.6664;9.4916;
913135296203594;18.2878;19.7152;9.6380;
913135306203594;18.1048;19.7152;9.7356;
913135316203594;17.9462;19.7640;9.8088;
913135326203594;17.9950;19.8006;9.7844;
913135336203594;17.8974;19.8494;9.9186;
913135346203594;17.7632;19.8372;9.9796;
913135356203594;17.7022;19.9226;10.0284;
913135366203594;17.6290;19.9348;9.9796;
913135376203594;17.7754;19.9836;9.7478;
913135386203594;17.9950;20.0446;9.5648;
913135396203594;18.0926;20.0812;9.3574;
913135406203594;18.1902;20.1300;9.2598;
913135416203594;18.2878;20.1544;9.1012;
913135426203594;18.4464;20.2154;8.8694;
913135436203594;18.4952;20.1666;8.6742;
913135446203594;18.6172;20.2154;8.6010;
913135456203594;18.6050;20.2276;8.7474;
913135466203594;18.5928;20.2764;8.7474;
913135476203594;18.4586;20.3008;8.9914;
913135486203594;18.3610;20.3252;9.1744;
913135496203594;18.2390;20.3008;9.4184;
913135506203594;18.3732;20.3740;9.4184;
913135516203594;18.3488;20.4106;9.4550;
913135526203594;18.3244;20.4350;9.5404;
913135536203594;18.3122;20.4472;9.5282;
913135546203594;18.2268;20.4228;9.5282;
913135556203594;18.2878;20.4472;9.3940;
913135566203594;18.2756;20.5082;9.3452;
913135576203594;18.3000;20.5814;9.2842;
913135586203594;18.1658;20.6058;9.4062;
913135596203594;18.1658;20.6790;9.4062;
913135606203594;18.2268;20.7766;9.3452;
913135616203594;18.1902;20.8620;9.2598;
913135626203594;18.2634;20.9718;9.1134;
913135636203594;18.3976;21.0938;8.9426;
913135646203594;18.4708;21.1792;8.7840;
913135656203594;18.4220;21.3256;8.7108;
913135666203594;18.3244;21.4110;8.7352;
913135676203594;18.3122;21.4964;8.6132;
913135686203594;18.1780;21.5940;8.6864;
913135696203594;18.0560;21.7038;8.7840;
913135706203594;17.8364;21.8014;9.0524;
913135716203594;17.5680;21.8380;9.3452;
913135726203594;17.4094;21.9112;9.4916;
913135736203594;17.2630;21.9356;9.6258;
913135746203594;17.1776;22.0088;9.6624;
913135756203594;16.9946;22.0820;9.8698;
913135766203594;16.9336;22.1430;9.8454;
913135776203594;16.9946;22.1918;9.7356;
913135786203594;17.1166;22.2406;9.5038;
913135796203594;17.2386;22.3260;9.2476;
913135806203594;17.3606;22.3748;9.0402;
913135816203594;17.5436;22.4480;8.7352;
913135826203594;17.6290;22.5212;8.5888;
913135836203594;17.6900;22.5334;8.4058;
913135846203594;17.7022;22.5822;8.3326;
913135856203594;17.7266;22.6432;8.2838;
913135866203594;17.6412;22.7286;8.3204;
913135876203594;17.5314;22.7774;8.4180;
913135886203594;17.3850;22.7652;8.4668;
913135896203594;17.2752;22.8262;8.5644;
913135906203594;17.3484;22.8994;8.4180;
913135916203594;17.3118;22.9726;8.4302;
913135926203594;17.3240;23.0214;8.3814;
913135936203594;17.1532;23.0458;8.4424;
913135946203594;17.0800;23.0458;8.4180;
913135956203594;17.1044;23.1190;8.3082;
913135966203594;17.1654;23.2166;8.1740;
913135976203594;17.1776;23.2776;8.1252;
913135986203594;16.8726;23.3142;8.3936;
913135996203594;16.7994;23.3386;8.4424;
913136006203594;16.7506;23.4118;8.3936;
913136016203594;16.8238;23.4850;8.2594;
913136026203594;16.8604;23.5460;8.2106;
913136036203594;16.8360;23.5582;8.1984;
913136046203594;16.7994;23.6070;8.2350;
913136056203594;16.7994;23.6558;8.1252;
913136066203594;17.0068;23.7046;7.8202;
913136076203594;17.1288;23.7778;7.5762;
913136086203594;17.2752;23.8144;7.3566;
913136096203594;17.2508;23.8388;7.1858;
913136106203594;17.3240;23.8876;7.0272;
913136116203594;17.3972;23.9364;6.8564;
913136126203594;17.4582;23.9730;6.6734;
913136136203594;17.6534;24.0218;6.4172;
913136146203594;17.7144;24.0462;6.2464;
913136156203594;17.7266;24.0462;6.2464;
913136166203594;17.6168;24.0462;6.3440;
913136176203594;17.7022;24.0706;6.3440;
913136186203594;17.7266;24.0340;6.3196;
913136196203594;17.7998;24.0584;6.1976;
913136206203594;17.8852;24.0706;6.1366;
913136216203594;17.7388;24.0340;6.2098;
913136226203594;17.8486;24.0462;6.1000;
913136236203594;18.0072;24.0828;5.9658;
913136246203594;18.2024;24.1316;5.6364;
913136256203594;18.3488;24.1194;5.4778;
913136266203594;18.4952;24.1560;5.3070;
913136276203594;18.4708;24.1438;5.2704;
913136286203594;18.4098;24.1316;5.2948;
913136296203594;18.3244;24.0706;5.2948;
913136306203594;18.1780;24.0218;5.5022;
913136316203594;18.1292;23.9974;5.4656;
913136326203594;18.0682;23.9120;5.5510;
913136336203594;18.0438;23.9608;5.5510;
913136346203594;17.8120;23.9242;5.6852;
913136356203594;17.8486;23.8998;5.6608;
913136366203594;18.0926;23.8998;5.3558;
913136376203594;18.4586;23.9608;5.0752;
913136386203594;18.7270;23.9486;4.7702;
913136396203594;18.8368;23.8998;4.5384;
913136406203594;18.9710;23.9120;4.3676;
913136416203594;19.0808;23.8388;4.1968;
913136426203594;19.2516;23.7900;3.9284;
913136436203594;19.3614;23.7534;3.8552;
913136446203594;19.2028;23.6680;4.0382;
913136456203594;19.0808;23.6070;4.2456;
913136466203594;19.0930;23.5460;4.3432;
913136476203594;19.1174;23.4850;4.5018;
913136486203594;19.1418;23.4118;4.6116;
913136496203594;19.1418;23.3386;4.7824;
913136506203594;19.2638;23.3020;4.8678;
913136516203594;19.2638;23.2410;5.0020;
913136526203594;19.4102;23.2044;4.9898;
913136536203594;19.4834;23.1190;5.0386;
913136546203594;19.3248;23.0336;5.1606;
913136556203594;19.2150;22.9848;5.3802;
913136566203594;19.1540;22.8750;5.5754;
913136576203594;19.0076;22.8018;5.7584;
913136586203594;18.9832;22.7286;5.8682;
913136596203594;18.9954;22.6676;5.8926;
913136606203594;18.9222;22.5944;6.0756;
913136616203594;18.8978;22.5456;6.1488;
913136626203594;18.9222;22.4968;6.2830;
913136636203594;19.0564;22.4724;6.0878;
913136646203594;19.1296;22.5090;6.0024;
913136656203594;19.3370;22.5090;5.8560;
913136666203594;19.3980;22.4968;5.8194;
913136676203594;19.3126;22.4602;5.9536;
913136686203594;19.2638;22.4480;5.9414;
913136696203594;19.3858;22.4114;5.8316;
913136706203594;19.3492;22.4236;5.8316;
913136716203594;19.2150;22.4114;6.0512;
913136726203594;19.0930;22.3748;6.1854;
913136736203594;18.8490;22.3504;6.4172;
913136746203594;18.7148;22.3260;6.5636;
913136756203594;18.7392;22.2894;6.5514;
913136766203594;18.7758;22.2894;6.5514;
913136776203594;18.7026;22.2528;6.6246;
913136786203594;18.7636;22.2406;6.5636;
913136796203594;18.8246;22.2162;6.4416;
913136806203594;18.9100;22.1796;6.4050;
913136816203594;19.0442;22.1430;6.1976;
913136826203594;19.0930;22.1308;6.1366;
913136836203594;19.1052;22.1552;6.1244;
913136846203594;19.1052;22.1186;6.1366;
913136856203594;19.0808;22.1308;6.2098;
913136866203594;18.9954;22.0820;6.2342;
913136876203594;19.0198;22.0820;6.2952;
913136886203594;19.0076;22.0942;6.2586;
913136896203594;19.0442;22.1308;6.2464;
913136906203594;19.0198;22.1430;6.3074;
913136916203594;19.0808;22.1552;6.2098;
913136926203594;18.9466;22.0942;6.2830;
913136936203594;18.9222;22.1064;6.2708;
913136946203594;18.9588;22.1430;6.1976;
913136956203594;18.9344;22.1796;6.3562;
913136966203594;18.7758;22.1430;6.4782;
913136976203594;18.6782;22.1308;6.5880;
913136986203594;18.7026;22.1308;6.6002;
913136996203594;18.6294;22.1186;6.6002;
913137006203594;18.6904;22.1796;6.6490;
913137016203594;18.6050;22.1796;6.7222;
913137026203594;18.4830;22.1308;6.9296;
913137036203594;18.4220;22.0942;6.9174;
913137046203594;18.4952;22.1308;6.8442;
913137056203594;18.6294;22.1186;6.7588;
913137066203594;18.6050;22.1064;6.7588;
913137076203594;18.5806;22.0698;6.8808;
913137086203594;18.5684;22.0454;6.8564;
913137096203594;18.6904;22.0332;6.7222;
913137106203594;18.8368;22.0820;6.5392;
913137116203594;18.8368;22.0698;6.5392;
913137126203594;18.7636;22.0576;6.6246;
913137136203594;18.5928;21.9966;6.8808;
913137146203594;18.5440;21.9600;6.9540;
913137156203594;18.5562;21.9600;6.9784;
913137166203594;18.6172;21.9478;6.9906;
913137176203594;18.5562;21.9478;7.0638;
913137186203594;18.4220;21.9112;7.2224;
913137196203594;18.3610;21.8868;7.3078;
913137206203594;18.4220;21.8502;7.3444;
913137216203594;18.4830;21.9112;7.2102;
913137226203594;18.5318;21.9600;7.0760;
913137236203594;18.6538;21.9722;6.9540;
913137246203594;18.7148;21.9966;6.7710;
913137256203594;18.8368;22.0210;6.6368;
913137266203594;19.0930;22.0576;6.3440;
913137276203594;19.2638;22.1064;5.9658;
913137286203594;19.3492;22.1552;5.8194;
913137296203594;19.3980;22.1430;5.7218;
913137306203594;19.3614;22.1430;5.7218;
913137316203594;19.2638;22.1796;5.7340;
913137326203594;19.1418;22.1674;5.7218;
913137336203594;19.0442;22.1430;5.7340;
913137346203594;18.9344;22.1064;5.7706;
913137356203594;18.8856;22.1064;5.8804;
913137366203594;18.9832;22.1186;5.7096;
913137376203594;19.0442;22.1674;5.6730;
913137386203594;19.2150;22.1918;5.5144;
913137396203594;19.3614;22.1918;5.2948;
913137406203594;19.5078;22.2406;5.2338;
913137416203594;19.6054;22.2772;5.0874;
913137426203594;19.6664;22.2894;5.0020;
913137436203594;19.7152;22.2894;4.8922;
913137446203594;19.4468;22.2528;5.0630;
913137456203594;19.4224;22.1918;5.0630;
913137466203594;19.3126;22.1796;5.1484;
913137476203594;19.2882;22.1918;5.2338;
913137486203594;19.2760;22.1918;5.1850;
913137496203594;19.3248;22.2162;5.1728;
913137506203594;19.2882;22.2772;5.2094;
913137516203594;19.2394;22.3138;5.3436;
913137526203594;19.3614;22.3626;5.3924;
913137536203594;19.2760;22.3748;5.4412;
913137546203594;19.3004;22.3382;5.3436;
913137556203594;19.2638;22.3260;5.3802;
913137566203594;19.1906;22.3260;5.4900;
913137576203594;19.0564;22.3016;5.6364;
913137586203594;19.0686;22.2650;5.6486;
913137596203594;19.0808;22.2528;5.6364;
913137606203594;19.1784;22.2406;5.4656;
913137616203594;19.2516;22.2040;5.4046;
913137626203594;19.2150;22.2528;5.5388;
913137636203594;19.1296;22.2528;5.6242;
913137646203594;19.0930;22.2406;5.6974;
913137656203594;18.7392;22.1918;6.2098;
913137666203594;18.6660;22.1674;6.2830;
913137676203594;18.7148;22.1552;6.2098;
913137686203594;18.7026;22.1552;6.2708;
913137696203594;18.5928;22.1918;6.3928;
913137706203594;18.6294;22.2040;6.4660;
913137716203594;18.6538;22.1796;6.4416;
913137726203594;18.6538;22.1674;6.4294;
913137736203594;18.9832;22.2284;5.9780;
913137746203594;18.8490;22.2528;6.1366;
913137756203594;18.5684;22.2528;6.5026;
913137766203594;18.3122;22.2772;6.6856;
913137776203594;18.3366;22.3016;6.5880;
913137786203594;18.3000;22.3260;6.4904;
913137796203594;18.2146;22.3382;6.5392;
913137806203594;18.2634;22.3748;6.5880;
913137816203594;18.2146;22.3992;6.5636;
913137826203594;18.3122;22.4480;6.3562;
913137836203594;18.6050;22.4968;5.9902;
913137846203594;18.8612;22.5090;5.6974;
913137856203594;19.0076;22.5822;5.5876;
913137866203594;19.0320;22.5700;5.4900;
913137876203594;19.1662;22.6432;5.2948;
913137886203594;19.4102;22.6920;4.8312;
913137896203594;19.6908;22.7164;4.4530;
913137906203594;19.9226;22.7286;4.2090;
913137916203594;19.9714;22.7408;4.1358;
913137926203594;19.8982;22.7774;4.1968;
913137936203594;19.8860;22.7530;4.1602;
913137946203594;19.9592;22.7896;4.1480;
913137956203594;19.9226;22.7042;4.1846;
913137966203594;19.7152;22.6676;4.5018;
913137976203594;19.5200;22.6676;4.8190;
913137986203594;19.3980;22.6798;5.0752;
913137996203594;19.2516;22.6310;5.2582;
913138006203594;19.3980;22.6310;5.2582;
913138016203594;19.3370;22.6188;5.3924;
913138026203594;19.2028;22.5822;5.5876;
913138036203594;19.2760;22.6188;5.5632;
913138046203594;19.2760;22.5700;5.5754;
913138056203594;19.2516;22.5578;5.6730;
913138066203594;19.1662;22.5334;5.8194;
913138076203594;19.1906;22.4968;5.7828;
913138086203594;19.0686;22.4358;5.8926;
913138096203594;18.8856;22.4114;6.1122;
913138106203594;18.8978;22.3626;6.1366;
913138116203594;18.9100;22.3260;6.1732;
913138126203594;18.9344;22.3382;6.2098;
913138136203594;19.0930;22.2894;6.0268;
913138146203594;19.2638;22.2406;5.8072;
913138156203594;19.4224;22.2284;5.6608;
913138166203594;19.5444;22.2040;5.4900;
913138176203594;19.8006;22.2040;5.2704;
913138186203594;19.9348;22.1796;5.0996;
913138196203594;19.8860;22.1430;5.1972;
913138206203594;19.8128;22.0820;5.3314;
913138216203594;19.6786;22.0332;5.4656;
913138226203594;19.6054;21.9722;5.6120;
913138236203594;19.4956;21.9112;5.8682;
913138246203594;19.4224;21.8746;5.9902;
913138256203594;19.3858;21.8014;6.1000;
913138266203594;19.4102;21.7648;6.1732;
913138276203594;19.4346;21.7526;6.2098;
913138286203594;19.4956;21.7160;6.1854;
913138296203594;19.5810;21.7160;6.1244;
913138306203594;19.7518;21.7404;5.9414;
913138316203594;19.9104;21.7404;5.7096;
913138326203594;20.0080;21.6794;5.5754;
913138336203594;20.1178;21.6672;5.3802;
913138346203594;20.0202;21.5940;5.4168;
913138356203594;20.0080;21.5452;5.4046;
913138366203594;20.0568;21.4842;5.3192;
913138376203594;20.0812;21.4110;5.3924;
913138386203594;19.9470;21.3500;5.6730;
913138396203594;19.7762;21.2402;5.8560;
913138406203594;19.7274;21.2036;6.0146;
913138416203594;19.7884;21.1304;6.0268;
913138426203594;19.8860;21.0938;5.9292;
913138436203594;20.0080;21.0694;5.8560;
913138446203594;19.9348;21.0328;5.9414;
913138456203594;19.9714;20.9840;5.9414;
913138466203594;20.0446;20.9352;5.8316;
913138476203594;20.1544;20.9230;5.7584;
913138486203594;20.2032;20.9108;5.7950;
913138496203594;20.1056;20.8864;5.9292;
913138506203594;20.0934;20.8742;6.0756;
913138516203594;20.0080;20.8376;6.2464;
913138526203594;20.0446;20.8254;6.3318;
913138536203594;20.1422;20.8376;6.2586;
913138546203594;20.0568;20.8376;6.3440;
913138556203594;20.0080;20.8620;6.5514;
913138566203594;19.9104;20.8498;6.6124;
913138576203594;19.8494;20.8498;6.7222;
913138586203594;19.8616;20.8742;6.7710;
913138596203594;19.9592;20.8864;6.6978;
913138606203594;20.0324;20.9474;6.6856;
913138616203594;19.8738;20.9352;6.7954;
913138626203594;19.9470;20.9596;6.7954;
913138636203594;20.0080;20.9596;6.6978;
913138646203594;20.0446;20.9718;6.6246;
913138656203594;20.1300;20.9962;6.6002;
913138666203594;20.0324;20.9962;6.6612;
913138676203594;19.8494;21.0206;6.8198;
913138686203594;19.8616;20.9840;6.8320;
913138696203594;19.8738;20.9962;6.8930;
913138706203594;19.8982;20.9718;6.8320;
913138716203594;19.8372;20.9230;6.9418;
913138726203594;19.7762;20.8742;7.0516;
913138736203594;19.6786;20.8620;7.1492;
913138746203594;19.7152;20.8376;7.1492;
913138756203594;19.7274;20.7888;7.2224;
913138766203594;19.6298;20.7766;7.3688;
913138776203594;19.6054;20.7400;7.4176;
913138786203594;19.4834;20.7034;7.6616;
913138796203594;19.4834;20.6790;7.6372;
913138806203594;19.6054;20.6912;7.6372;
913138816203594;19.6664;20.6790;7.6006;
913138826203594;19.7274;20.6912;7.5030;
913138836203594;19.9226;20.7034;7.3078;
913138846203594;20.1544;20.6912;7.0028;
913138856203594;20.3374;20.7034;6.7954;
913138866203594;20.5570;20.7034;6.5758;
913138876203594;20.6912;20.7644;6.4904;
913138886203594;20.7034;20.7522;6.4416;
913138896203594;20.6790;20.7888;6.4660;
913138906203594;20.5570;20.7766;6.6124;
913138916203594;20.3862;20.7522;6.7710;
913138926203594;20.1422;20.7522;7.0272;
913138936203594;20.0080;20.7522;7.1858;
913138946203594;19.8128;20.7766;7.2956;
913138956203594;19.7152;20.7888;7.3566;
913138966203594;19.6542;20.8376;7.3932;
913138976203594;19.6908;20.8010;7.4420;
913138986203594;19.7274;20.7766;7.4664;
913138996203594;19.8738;20.7888;7.4054;
913139006203594;20.0202;20.8254;7.3078;
913139016203594;19.9958;20.8620;7.3932;
913139026203594;20.0324;20.8864;7.4786;
913139036203594;20.0446;20.8498;7.5640;
913139046203594;20.0690;20.8498;7.6616;
913139056203594;20.0080;20.9230;7.7348;
913139066203594;20.0568;20.9840;7.7226;
913139076203594;20.0080;21.0206;7.8080;
913139086203594;19.9714;21.0206;7.9422;
913139096203594;19.8372;21.0450;8.1008;
913139106203594;19.8738;21.0572;8.1496;
913139116203594;19.7640;21.0694;8.2838;
913139126203594;19.7274;21.0816;8.3326;
913139136203594;19.7518;21.1182;8.3204;
913139146203594;19.7152;21.1060;8.4058;
913139156203594;19.6908;21.1548;8.3692;
913139166203594;19.6664;21.1914;8.3204;
913139176203594;19.7518;21.2524;8.2472;
913139186203594;19.5932;21.2768;8.3814;
913139196203594;19.6176;21.3622;8.3570;
913139206203594;19.6298;21.4354;8.3082;
913139216203594;19.6298;21.4720;8.3082;
913139226203594;19.7030;21.5696;8.2594;
913139236203594;19.6542;21.6062;8.4302;
913139246203594;19.5932;21.6550;8.5278;
913139256203594;19.6542;21.7160;8.4668;
913139266203594;19.7884;21.8136;8.2594;
913139276203594;19.8372;21.8624;8.2960;
913139286203594;19.8128;21.9234;8.3082;
913139296203594;19.7640;21.9600;8.3326;
913139306203594;19.6908;22.0088;8.4546;
913139316203594;19.5810;22.0698;8.4790;
913139326203594;19.5932;22.1430;8.5156;
913139336203594;19.4590;22.1674;8.7108;
913139346203594;19.4224;22.2162;8.7108;
913139356203594;19.3858;22.2650;8.6864;
913139366203594;19.3370;22.3138;8.6254;
913139376203594;19.2760;22.3992;8.6864;
913139386203594;19.2272;22.4358;8.6498;
913139396203594;19.3004;22.4724;8.4180;
913139406203594;19.3492;22.5212;8.1618;
913139416203594;19.5200;22.5456;7.8690;
913139426203594;19.4468;22.5456;7.7836;
913139436203594;19.5200;22.5700;7.6250;
913139446203594;19.6054;22.5822;7.5762;
913139456203594;19.7274;22.5700;7.4664;
913139466203594;19.8128;22.6066;7.2834;
913139476203594;19.8860;22.6432;7.3078;
913139486203594;19.8250;22.6676;7.5274;
913139496203594;19.6664;22.6798;7.7104;
913139506203594;19.7518;22.7530;7.7592;
913139516203594;19.7762;22.7774;7.7958;
913139526203594;19.7762;22.7652;7.7592;
913139536203594;19.8738;22.8018;7.6250;
913139546203594;19.9836;22.7896;7.5152;
913139556203594;19.9714;22.8262;7.4298;
913139566203594;20.0202;22.8140;7.2224;
913139576203594;20.1178;22.8872;7.0272;
913139586203594;20.0812;22.8506;7.0394;
913139596203594;19.9836;22.8262;7.0150;
913139606203594;19.9226;22.8994;7.0760;
913139616203594;19.8006;22.8872;7.1614;
913139626203594;19.7152;22.8994;7.1858;
913139636203594;19.7152;22.9238;7.2224;
913139646203594;19.5688;22.9726;7.3566;
913139656203594;19.4102;22.9604;7.5396;
913139666203594;19.2882;23.0214;7.6128;
913139676203594;19.2394;23.0824;7.6738;
913139686203594;19.2760;23.0824;7.6006;
913139696203594;19.2516;23.1190;7.5640;
913139706203594;19.2028;23.1800;7.6006;
913139716203594;19.1174;23.1434;7.6250;
913139726203594;19.1174;23.1556;7.6006;
913139736203594;19.1906;23.2166;7.4664;
913139746203594;19.2638;23.2410;7.2834;
913139756203594;19.2760;23.2776;7.1858;
913139766203594;19.2760;23.3264;7.0028;
913139776203594;19.3126;23.3386;6.7710;
913139786203594;19.3858;23.3020;6.5758;
913139796203594;19.5200;23.3508;6.3562;
913139806203594;19.6908;23.3874;6.1488;
913139816203594;19.8006;23.3630;5.9414;
913139826203594;19.8860;23.3386;5.8926;
913139836203594;19.8372;23.2898;5.9170;
913139846203594;19.6908;23.2654;6.0634;
913139856203594;19.5932;23.2288;6.2586;
913139866203594;19.4468;23.2166;6.3928;
913139876203594;19.2638;23.1800;6.4904;
913139886203594;19.0442;23.1312;6.6002;
913139896203594;18.9222;23.0702;6.7100;
913139906203594;18.9466;23.0458;6.6978;
913139916203594;19.0198;23.0458;6.5636;
913139926203594;19.1662;22.9970;6.5392;
913139936203594;19.2394;22.9604;6.4538;
913139946203594;19.2760;22.9604;6.4172;
913139956203594;19.2882;22.8994;6.3806;
913139966203594;19.2760;22.8872;6.4294;
913139976203594;19.3370;22.8750;6.3318;
913139986203594;19.2516;22.8140;6.4050;
913139996203594;19.2028;22.7652;6.5514;
913140006203594;19.0320;22.7652;6.7100;
913140016203594;18.8978;22.7774;6.8320;
913140026203594;18.8246;22.7164;6.9662;
913140036203594;18.6538;22.7042;7.1736;
913140046203594;18.5806;22.6554;7.2468;
913140056203594;18.3488;22.6554;7.6372;
913140066203594;18.1292;22.6676;7.8202;
913140076203594;17.9340;22.6432;8.0886;
913140086203594;17.9462;22.6432;8.0398;
913140096203594;18.0072;22.6554;7.9056;
913140106203594;18.0438;22.6798;7.9666;
913140116203594;18.1658;22.7286;7.8324;
913140126203594;18.3000;22.7652;7.7714;
913140136203594;18.6050;22.7896;7.4054;
913140146203594;18.6782;22.7652;7.2956;
913140156203594;18.7270;22.7408;7.1736;
913140166203594;18.6538;22.6798;7.1858;
913140176203594;18.6050;22.6676;7.3200;
913140186203594;18.4708;22.6188;7.3566;
913140196203594;18.4464;22.6066;7.3566;
913140206203594;18.5074;22.5944;7.2834;
913140216203594;18.4342;22.5822;7.2956;
913140226203594;18.5440;22.5578;7.1248;
913140236203594;18.8734;22.6066;6.7588;
913140246203594;19.2394;22.6676;6.3684;
913140256203594;19.5078;22.6920;6.0878;
913140266203594;19.9348;22.7286;5.6486;
913140276203594;20.2032;22.7408;5.3680;
913140286203594;20.4350;22.7408;5.0508;
913140296203594;20.5692;22.7164;4.9166;
913140306203594;20.6912;22.7530;4.8800;
913140316203594;20.6424;22.6920;4.9166;
913140326203594;20.5082;22.6432;5.0874;
913140336203594;20.5204;22.5944;5.1240;
913140346203594;20.3618;22.5700;5.1972;
913140356203594;20.3862;22.5456;5.2094;
913140366203594;20.3496;22.5090;5.3924;
913140376203594;20.3496;22.4846;5.3802;
913140386203594;20.5204;22.4724;5.2704;
913140396203594;20.5204;22.4968;5.2948;
913140406203594;20.6546;22.5090;5.1972;
913140416203594;20.5326;22.4724;5.2216;
913140426203594;20.6058;22.4358;5.2216;
913140436203594;20.6180;22.4114;5.1850;
913140446203594;20.5692;22.3870;5.1850;
913140456203594;20.5082;22.3748;5.3070;
913140466203594;20.4350;22.3260;5.2826;
913140476203594;20.3862;22.3016;5.3192;
913140486203594;20.3130;22.2894;5.5632;
913140496203594;20.3374;22.2650;5.6608;
913140506203594;20.2642;22.2772;5.8682;
913140516203594;20.3374;22.2650;5.9536;
913140526203594;20.4716;22.2894;5.9170;
913140536203594;20.5814;22.2772;5.7950;
913140546203594;20.5448;22.2650;5.9414;
913140556203594;20.5570;22.2528;6.0634;
913140566203594;20.4716;22.2406;6.0146;
913140576203594;20.4228;22.2650;6.0756;
913140586203594;20.4350;22.2284;6.1000;
913140596203594;20.2886;22.2284;6.1976;
913140606203594;20.0202;22.1796;6.5392;
913140616203594;19.8738;22.1552;6.7466;
913140626203594;19.8250;22.1918;6.8686;
913140636203594;19.7884;22.2040;6.8686;
913140646203594;19.7762;22.2040;7.0394;
913140656203594;19.7884;22.1796;7.0638;
913140666203594;19.8494;22.2040;6.9662;
913140676203594;19.8250;22.2040;7.1004;
913140686203594;19.8738;22.1674;6.9906;
913140696203594;19.9226;22.2040;7.0028;
913140706203594;19.9836;22.2162;6.9662;
913140716203594;20.0690;22.2650;6.8930;
913140726203594;20.2520;22.3138;6.7222;
913140736203594;20.3130;22.3260;6.6124;
913140746203594;20.2520;22.3382;6.6612;
913140756203594;20.2764;22.3748;6.6246;
913140766203594;20.2642;22.4602;6.6490;
913140776203594;20.3252;22.4358;6.6246;
913140786203594;20.1788;22.3870;6.7222;
913140796203594;20.0568;22.3504;6.8076;
913140806203594;19.9226;22.3138;6.9052;
913140816203594;19.8982;22.3260;6.9174;
913140826203594;19.9470;22.3138;6.9296;
913140836203594;19.9226;22.3016;6.9662;
913140846203594;19.9836;22.2894;6.8930;
913140856203594;19.9592;22.3138;6.8320;
913140866203594;20.0446;22.3138;6.7344;
913140876203594;20.2154;22.3138;6.6490;
913140886203594;20.3374;22.3260;6.5148;
913140896203594;20.3008;22.2894;6.5880;
913140906203594;20.2764;22.2772;6.6246;
913140916203594;20.2764;22.2528;6.4660;
913140926203594;20.3008;22.2284;6.5392;
913140936203594;20.2520;22.1796;6.5880;
913140946203594;20.1422;22.1430;6.6490;
913140956203594;20.1056;22.0942;6.6490;
913140966203594;20.0568;22.0088;6.6246;
913140976203594;20.1544;21.9966;6.5758;
913140986203594;20.1666;21.9600;6.5758;
913140996203594;20.1422;21.9478;6.7100;
913141006203594;20.0202;21.9234;6.9296;
913141016203594;19.9226;21.8746;7.0150;
913141026203594;19.9958;21.8868;6.8808;
913141036203594;20.0446;21.8624;6.8686;
913141046203594;19.9104;21.8868;7.0150;
913141056203594;19.8250;21.8990;7.1004;
913141066203594;19.7274;21.8746;7.1004;
913141076203594;19.8128;21.8380;7.0394;
913141086203594;19.9592;21.8136;6.8198;
913141096203594;20.1422;21.8014;6.6368;
913141106203594;20.2520;21.8136;6.6368;
913141116203594;20.2764;21.7892;6.5880;
913141126203594;20.4472;21.8014;6.4782;
913141136203594;20.4228;21.8014;6.4782;
913141146203594;20.4960;21.8136;6.4904;
913141156203594;20.4350;21.7770;6.5636;
913141166203594;20.2642;21.7892;6.7466;
913141176203594;20.1056;21.8380;7.0516;
913141186203594;20.0080;21.8258;7.1858;
913141196203594;19.9226;21.8380;7.2346;
913141206203594;19.9470;21.8380;7.2956;
913141216203594;19.9958;21.8502;7.3322;
913141226203594;19.9470;21.8380;7.3444;
913141236203594;19.9104;21.8990;7.4054;
913141246203594;20.0202;21.9112;7.2590;
913141256203594;20.2642;21.8868;6.9540;
913141266203594;20.5570;21.9478;6.6124;
913141276203594;20.7644;21.9722;6.3806;
913141286203594;20.8498;22.0454;6.1488;
913141296203594;20.9718;22.0454;5.8926;
913141306203594;21.1792;22.0820;5.6730;
913141316203594;21.3866;22.1064;5.3192;
913141326203594;21.6062;22.1430;4.9898;
913141336203594;21.6916;22.1674;4.8434;
913141346203594;21.5818;22.1308;4.8678;
913141356203594;21.4354;22.1430;4.9166;
913141366203594;21.2890;22.1186;5.0874;
913141376203594;21.1670;22.1552;5.1972;
913141386203594;20.9840;22.1186;5.3680;
913141396203594;20.8132;22.1064;5.5632;
913141406203594;20.6424;22.0698;5.7096;
913141416203594;20.4594;22.0576;5.8560;
913141426203594;20.2642;22.0332;6.0756;
913141436203594;20.0934;21.9966;6.3318;
913141446203594;20.0202;21.9356;6.3806;
913141456203594;19.9714;21.8746;6.5026;
913141466203594;19.9348;21.8746;6.4904;
913141476203594;19.8860;21.8258;6.5880;
913141486203594;19.7762;21.8258;6.7710;
913141496203594;19.7030;21.8502;6.8564;
913141506203594;19.6542;21.8502;6.9784;
913141516203594;19.6786;21.8868;7.0272;
913141526203594;19.6786;21.9356;7.0394;
913141536203594;19.7274;21.9356;6.9540;
913141546203594;19.6176;21.9600;7.0760;
913141556203594;19.5810;21.9966;7.0272;
913141566203594;19.5078;22.0210;7.1248;
913141576203594;19.4956;22.0332;7.1370;
913141586203594;19.4956;22.0576;7.1126;
913141596203594;19.4712;22.0942;7.0394;
913141606203594;19.5078;22.0820;6.9418;
913141616203594;19.5810;22.0820;6.7710;
913141626203594;19.8006;22.0698;6.5758;
913141636203594;19.9226;22.0698;6.4538;
913141646203594;19.9470;22.0576;6.3440;
913141656203594;20.0568;22.0332;6.2708;
913141666203594;20.1544;22.0088;6.1122;
913141676203594;20.2642;21.9844;6.0878;
913141686203594;20.2642;21.9356;6.1854;
913141696203594;20.0934;21.9600;6.3806;
913141706203594;19.9958;21.9478;6.5392;
913141716203594;19.8006;21.9112;6.7588;
913141726203594;19.7396;21.8624;6.9174;
913141736203594;19.7030;21.8868;6.9906;
913141746203594;19.6420;21.8380;7.0394;
913141756203594;19.5688;21.7892;7.0882;
913141766203594;19.5078;21.8502;7.0638;
913141776203594;19.5566;21.8258;6.9906;
913141786203594;19.5810;21.8014;6.9906;
913141796203594;19.7030;21.8258;6.8198;
913141806203594;19.7152;21.8014;6.7588;
913141816203594;19.5566;21.7160;6.8564;
913141826203594;19.4712;21.7282;6.9540;
913141836203594;19.5200;21.7038;6.9296;
913141846203594;19.5444;21.6306;6.8808;
913141856203594;19.6664;21.6306;6.8320;
913141866203594;19.6664;21.6184;6.6368;
913141876203594;19.7030;21.5574;6.6734;
913141886203594;19.7640;21.5696;6.6734;
913141896203594;19.8372;21.5452;6.6246;
913141906203594;19.8982;21.5574;6.6856;
913141916203594;19.8494;21.5818;6.7222;
913141926203594;19.8250;21.5574;6.8320;
913141936203594;19.7152;21.5086;7.0150;
913141946203594;19.6176;21.4476;7.2590;
913141956203594;19.5444;21.3988;7.3810;
913141966203594;19.4834;21.3744;7.4908;
913141976203594;19.3492;21.3256;7.6250;
913141986203594;19.2516;21.2036;7.6738;
913141996203594;19.1540;21.1792;7.8812;
913142006203594;19.1662;21.1304;7.9666;
913142016203594;19.2028;21.0694;7.9788;
913142026203594;19.3248;21.0816;7.9422;
913142036203594;19.4468;21.1060;7.8446;
913142046203594;19.5566;21.0572;7.6738;
913142056203594;19.7640;21.0938;7.6006;
913142066203594;19.8616;21.1182;7.6006;
913142076203594;19.9714;21.0938;7.3932;
913142086203594;20.0690;21.1304;7.2712;
913142096203594;19.8860;21.1548;7.2834;
913142106203594;19.8250;21.1670;7.2834;
913142116203594;19.7152;21.1670;7.4054;
913142126203594;19.6420;21.1670;7.4054;
913142136203594;19.7030;21.1182;7.2224;
913142146203594;19.7884;21.1426;7.0028;
913142156203594;19.9836;21.1426;6.8198;
913142166203594;19.9714;21.0816;6.6612;
913142176203594;20.0934;21.0450;6.5270;
913142186203594;20.0446;20.9840;6.5148;
913142196203594;20.0934;20.9352;6.3440;
913142206203594;20.2032;20.9230;6.2830;
913142216203594;20.2032;20.9596;6.2342;
913142226203594;20.1544;20.9230;6.3074;
913142236203594;19.9470;20.8498;6.5148;
913142246203594;19.9226;20.8498;6.6246;
913142256203594;19.9714;20.8620;6.6490;
913142266203594;20.0446;20.8010;6.5514;
913142276203594;20.0568;20.7888;6.5514;
913142286203594;19.9958;20.7400;6.5392;
913142296203594;19.7030;20.6424;6.8686;
913142306203594;19.4346;20.5936;7.1004;
913142316203594;19.2028;20.5936;7.3688;
913142326203594;19.0198;20.5936;7.5396;
913142336203594;18.8368;20.5448;7.6494;
913142346203594;18.6904;20.5448;7.7714;
913142356203594;18.5684;20.4960;7.8690;
913142366203594;18.4952;20.4716;7.9300;
913142376203594;18.6050;20.5082;7.8812;
913142386203594;18.8002;20.4960;7.7104;
913142396203594;18.9954;20.4472;7.4786;
913142406203594;19.0198;20.4472;7.3810;
913142416203594;19.0320;20.4106;7.3932;
913142426203594;19.0808;20.4594;7.4420;
913142436203594;18.9954;20.4472;7.4908;
913142446203594;19.0076;20.4228;7.4176;
913142456203594;19.0320;20.3862;7.2956;
913142466203594;19.0442;20.3984;7.2346;
913142476203594;19.1296;20.4228;7.1004;
913142486203594;19.3126;20.4228;6.9662;
913142496203594;19.4590;20.4228;6.6612;
913142506203594;19.5200;20.3984;6.5880;
913142516203594;19.5566;20.4472;6.5026;
913142526203594;19.5932;20.4838;6.5880;
913142536203594;19.5810;20.4838;6.6124;
913142546203594;19.5566;20.4594;6.6246;
913142556203594;19.4468;20.4350;6.7344;
913142566203594;19.2516;20.3984;6.8930;
913142576203594;19.0686;20.3740;7.2590;
913142586203594;18.9954;20.3618;7.3566;
913142596203594;18.9222;20.2764;7.5152;
913142606203594;18.9344;20.2642;7.5396;
913142616203594;19.0198;20.2276;7.4420;
913142626203594;18.8856;20.1910;7.6616;
913142636203594;18.8002;20.1300;7.8812;
913142646203594;18.7636;20.1300;7.9910;
913142656203594;18.6782;20.1178;8.1252;
913142666203594;18.5440;20.0812;8.2228;
913142676203594;18.6904;20.1056;8.1740;
913142686203594;18.6294;20.0812;8.2350;
913142696203594;18.5074;20.1178;8.4912;
913142706203594;18.5928;20.1300;8.4546;
913142716203594;18.6782;20.1422;8.2838;
913142726203594;18.7270;20.1422;8.1740;
913142736203594;18.8490;20.1666;8.0276;
913142746203594;18.9832;20.1666;7.9544;
913142756203594;18.7758;20.1666;8.0764;
913142766203594;18.7880;20.1300;8.0886;
913142776203594;18.7148;20.0934;8.1374;
913142786203594;18.6538;20.0934;8.1740;
913142796203594;18.5074;20.1300;8.3326;
913142806203594;18.5196;20.1300;8.4302;
913142816203594;18.5562;20.1056;8.3936;
913142826203594;18.5806;20.1178;8.3692;
913142836203594;18.7148;20.1544;8.2472;
913142846203594;18.5196;20.2032;8.3570;
913142856203594;18.5074;20.2764;8.3448;
913142866203594;18.5440;20.3008;8.3326;
913142876203594;18.6660;20.3252;8.2472;
913142886203594;18.6294;20.4106;8.2716;
913142896203594;18.5928;20.4716;8.2472;
913142906203594;18.4830;20.5326;8.3204;
913142916203594;18.4830;20.5814;8.3692;
913142926203594;18.7026;20.6302;8.0764;
913142936203594;18.8002;20.7034;7.9056;
913142946203594;18.8002;20.7522;7.7836;
913142956203594;18.7148;20.7888;7.6860;
913142966203594;18.7270;20.8254;7.5640;
913142976203594;18.6904;20.8986;7.5640;
913142986203594;18.6538;20.9718;7.5884;
913142996203594;18.5074;21.0206;7.6616;
913143006203594;18.2268;21.0938;8.0886;
913143016203594;18.0804;21.1670;8.2594;
913143026203594;17.9950;21.2158;8.3570;
913143036203594;18.0072;21.2768;8.4790;
913143046203594;17.7998;21.2890;8.7108;
913143056203594;17.6656;21.3134;8.8816;
913143066203594;17.6412;21.3378;8.9060;
913143076203594;17.7510;21.4110;8.7718;
913143086203594;17.5558;21.4354;8.8938;
913143096203594;17.6900;21.4354;8.7352;
913143106203594;17.8608;21.4720;8.5034;
913143116203594;17.9462;21.5086;8.3448;
913143126203594;18.2146;21.5086;8.0520;
913143136203594;18.4464;21.4842;7.7592;
913143146203594;18.5562;21.5208;7.6372;
913143156203594;18.5074;21.4964;7.6616;
913143166203594;18.8368;21.4842;7.3078;
913143176203594;18.7392;21.4842;7.3810;
913143186203594;18.5806;21.4598;7.6372;
913143196203594;18.3732;21.4476;7.9788;
913143206203594;18.3854;21.4964;8.0032;
913143216203594;18.3488;21.5330;8.1008;
913143226203594;18.4830;21.5208;7.9300;
913143236203594;18.6782;21.5086;7.7958;
913143246203594;18.7636;21.4964;7.6982;
913143256203594;18.8490;21.4842;7.6616;
913143266203594;19.0198;21.5208;7.4298;
913143276203594;19.2150;21.5330;7.1492;
913143286203594;19.2760;21.5818;7.0394;
913143296203594;19.3614;21.6062;6.8564;
913143306203594;19.4346;21.6672;6.8076;
913143316203594;19.3492;21.7038;6.7954;
913143326203594;19.3980;21.7648;6.7344;
913143336203594;19.3004;21.8136;6.7832;
913143346203594;19.1296;21.8014;6.8808;
913143356203594;19.0808;21.8380;6.8564;
913143366203594;18.8490;21.8258;6.9906;
913143376203594;18.7514;21.8624;7.1126;
913143386203594;18.5318;21.8502;7.2468;
913143396203594;18.4830;21.8746;7.2834;
913143406203594;18.3488;21.8990;7.3078;
913143416203594;18.5074;21.9112;7.0760;
913143426203594;18.6660;21.9234;6.8930;
913143436203594;18.7148;21.8868;6.8198;
913143446203594;18.8246;21.9112;6.6490;
913143456203594;18.9222;21.9234;6.4904;
913143466203594;19.0930;21.9600;6.3074;
913143476203594;19.0930;21.9844;6.2830;
913143486203594;19.2760;22.0088;6.1610;
913143496203594;19.2150;22.0454;6.1976;
913143506203594;19.1906;22.1064;6.2342;
913143516203594;19.1662;22.1796;6.2342;
913143526203594;19.1784;22.1918;6.2220;
913143536203594;19.1784;22.2040;6.3318;
913143546203594;19.0320;22.1918;6.5026;
913143556203594;19.0442;22.2284;6.5514;
913143566203594;18.9466;22.2528;6.7222;
913143576203594;18.9100;22.2772;6.8320;
913143586203594;18.8856;22.3016;6.9540;
913143596203594;18.9100;22.3504;7.0028;
913143606203594;18.9222;22.3748;7.0638;
913143616203594;18.8856;22.4114;7.0028;
913143626203594;18.8368;22.4358;7.1126;
913143636203594;18.8734;22.4602;7.1004;
913143646203594;18.8978;22.5090;7.0516;
913143656203594;18.8734;22.5334;7.1492;
913143666203594;18.8002;22.5334;7.2346;
913143676203594;18.6294;22.5090;7.4054;
913143686203594;18.4586;22.5578;7.6738;
913143696203594;18.3000;22.5700;7.9544;
913143706203594;18.2146;22.5700;8.0886;
913143716203594;17.9828;22.5456;8.3814;
913143726203594;17.7998;22.5822;8.5888;
913143736203594;17.6778;22.5700;8.6742;
913143746203594;17.6168;22.6066;8.6376;
913143756203594;17.6778;22.6554;8.5278;
913143766203594;17.6168;22.6432;8.5522;
913143776203594;17.4826;22.6310;8.7108;
913143786203594;17.3850;22.7042;8.8206;
913143796203594;17.4094;22.7408;8.7474;
913143806203594;17.5558;22.7164;8.6132;
913143816203594;17.7022;22.8018;8.4912;
913143826203594;17.7754;22.8018;8.4790;
913143836203594;17.8730;22.8384;8.4424;
913143846203594;18.1170;22.8628;8.1618;
913143856203594;18.4464;22.9116;7.7104;
913143866203594;18.7636;22.9482;7.2834;
913143876203594;18.9832;22.9848;7.0882;
913143886203594;19.0198;23.0336;6.9174;
913143896203594;19.0442;23.0336;6.8686;
913143906203594;19.0930;23.0824;6.7466;
913143916203594;19.1418;23.0946;6.6368;
913143926203594;19.0686;23.1312;6.6978;
913143936203594;18.9222;23.1312;6.8564;
913143946203594;18.7392;23.1312;7.0394;
913143956203594;18.6294;23.1434;6.9906;
913143966203594;18.6538;23.1434;6.9906;
913143976203594;18.6904;23.1190;6.9296;
913143986203594;18.6538;23.1068;7.0272;
913143996203594;18.4952;23.0824;7.2102;
913144006203594;18.4342;23.0946;7.2590;
913144016203594;18.3488;23.0824;7.3566;
913144026203594;18.2146;23.0702;7.6006;
913144036203594;18.1170;23.0458;7.7592;
913144046203594;17.9706;23.0214;7.9422;
913144056203594;17.8730;23.0214;8.0886;
913144066203594;17.8852;23.0092;8.0764;
913144076203594;17.8974;23.0092;8.1008;
913144086203594;17.8974;22.9848;8.1618;
913144096203594;17.9462;22.9848;8.0886;
913144106203594;18.0682;22.9848;7.9666;
913144116203594;18.0438;22.9482;8.0520;
913144126203594;17.9950;22.9238;8.1252;
913144136203594;18.0560;22.8994;8.0764;
913144146203594;18.0194;22.9116;8.1374;
913144156203594;17.9340;22.8872;8.1374;
913144166203594;17.7876;22.9116;8.2716;
913144176203594;17.7022;22.8994;8.4546;
913144186203594;17.7632;22.8994;8.3082;
913144196203594;17.9828;22.9116;8.0032;
913144206203594;18.1902;22.9360;7.7714;
913144216203594;18.2756;22.9726;7.6250;
913144226203594;18.3488;22.9604;7.4542;
913144236203594;18.6416;22.9970;7.2224;
913144246203594;18.8612;22.9482;6.9418;
913144256203594;19.0808;22.9116;6.6368;
913144266203594;19.1418;22.9116;6.5270;
913144276203594;19.0564;22.8994;6.6124;
913144286203594;19.0686;22.8506;6.6124;
913144296203594;19.1174;22.8384;6.5514;
913144306203594;19.0808;22.8384;6.6124;
913144316203594;18.9954;22.8018;6.6246;
913144326203594;18.9344;22.8018;6.6978;
913144336203594;18.8612;22.8018;6.7832;
913144346203594;18.7514;22.7896;6.9052;
913144356203594;18.7758;22.7774;6.8686;
913144366203594;18.7514;22.8018;6.8076;
913144376203594;18.6660;22.8140;6.9174;
913144386203594;18.7636;22.8018;6.8320;
913144396203594;18.7392;22.8018;6.8564;
913144406203594;18.7270;22.7774;6.8808;
913144416203594;18.6782;22.8018;6.9662;
913144426203594;18.6294;22.8018;7.0028;
913144436203594;18.5562;22.8384;7.0760;
913144446203594;18.4708;22.8384;7.1858;
913144456203594;18.4342;22.8262;7.1736;
913144466203594;18.2390;22.8140;7.3322;
913144476203594;18.1536;22.8384;7.3566;
913144486203594;18.1170;22.8872;7.3688;
913144496203594;18.0438;22.8994;7.3932;
913144506203594;18.0560;22.9360;7.4542;
913144516203594;18.0316;22.9482;7.4786;
913144526203594;17.9584;22.9726;7.5518;
913144536203594;17.8486;22.9848;7.6616;
913144546203594;17.8120;23.0214;7.6494;
913144556203594;17.7632;23.0214;7.7226;
913144566203594;17.8242;23.0336;7.6250;
913144576203594;17.9096;23.0458;7.4542;
913144586203594;18.1170;23.0458;7.1736;
913144596203594;18.2268;23.0702;6.9662;
913144606203594;18.2024;23.0702;6.9784;
913144616203594;18.2634;23.0824;6.9296;
913144626203594;18.3854;23.1068;6.8320;
913144636203594;18.4952;23.1312;6.6612;
913144646203594;18.5440;23.1800;6.6002;
913144656203594;18.6294;23.1922;6.5026;
913144666203594;18.6172;23.1678;6.5026;
913144676203594;18.5074;23.1556;6.6978;
913144686203594;18.5318;23.1678;6.6124;
913144696203594;18.6294;23.2166;6.4660;
913144706203594;18.5928;23.2166;6.4660;
913144716203594;18.5806;23.2532;6.5148;
913144726203594;18.6172;23.2410;6.4538;
913144736203594;18.5196;23.2410;6.6368;
913144746203594;18.4464;23.2776;6.6124;
913144756203594;18.5440;23.3142;6.4172;
913144766203594;18.6782;23.3630;6.2586;
913144776203594;18.6904;23.3630;6.2708;
913144786203594;18.7636;23.3630;6.1610;
913144796203594;18.8490;23.3508;6.0756;
913144806203594;18.7880;23.3508;6.1488;
913144816203594;18.7880;23.3508;6.1244;
913144826203594;18.7270;23.3874;6.3074;
913144836203594;18.6660;23.3630;6.4294;
913144846203594;18.6416;23.3630;6.4294;
913144856203594;18.6050;23.3508;6.4538;
913144866203594;18.6660;23.3752;6.4782;
913144876203594;18.6172;23.3996;6.5148;
913144886203594;18.6294;23.3996;6.4904;
913144896203594;18.6416;23.4118;6.4294;
913144906203594;18.5806;23.3508;6.4538;
913144916203594;18.5684;23.3752;6.4904;
913144926203594;18.4586;23.3386;6.6734;
913144936203594;18.4464;23.3386;6.6490;
913144946203594;18.3732;23.2898;6.6612;
913144956203594;18.3366;23.2166;6.7222;
913144966203594;18.3244;23.2044;6.7344;
913144976203594;18.5196;23.1922;6.4294;
913144986203594;18.7514;23.2410;6.1610;
913144996203594;18.8856;23.2044;5.9292;
913145006203594;19.0198;23.2166;5.7096;
913145016203594;19.2516;23.2288;5.4656;
913145026203594;19.3980;23.2654;5.3558;
913145036203594;19.5444;23.3020;5.2338;
913145046203594;19.6054;23.3142;5.1118;
913145056203594;19.6054;23.3386;5.2216;
913145066203594;19.6786;23.3752;5.1972;
913145076203594;19.7274;23.3996;5.1118;
913145086203594;19.7640;23.4118;5.1118;
913145096203594;19.5444;23.3752;5.2948;
913145106203594;19.5444;23.4118;5.1972;
913145116203594;19.5078;23.4118;5.1362;
913145126203594;19.4468;23.4118;5.2338;
913145136203594;19.2638;23.3996;5.3680;
913145146203594;19.0686;23.3630;5.5022;
913145156203594;18.9100;23.3264;5.7340;
913145166203594;18.8246;23.2776;5.7950;
913145176203594;18.9100;23.2898;5.6242;
913145186203594;18.8612;23.2044;5.7096;
913145196203594;18.8246;23.1922;5.7706;
913145206203594;18.9588;23.1678;5.6852;
913145216203594;19.1052;23.1434;5.5632;
913145226203594;19.3492;23.1068;5.3314;
913145236203594;19.5200;23.0824;5.1972;
913145246203594;19.6664;23.0946;5.1362;
913145256203594;19.5566;23.0336;5.3924;
913145266203594;19.2882;23.0092;5.7218;
913145276203594;19.1906;22.9604;5.9292;
913145286203594;18.8978;22.8628;6.2464;
913145296203594;18.6538;22.8384;6.5636;
913145306203594;18.4098;22.8018;6.9418;
913145316203594;18.2390;22.7530;7.1370;
913145326203594;18.0072;22.6798;7.3444;
913145336203594;18.0316;22.6676;7.3444;
913145346203594;18.1780;22.6188;7.1980;
913145356203594;18.2634;22.5822;7.0150;
913145366203594;18.5318;22.5822;6.7710;
913145376203594;18.8124;22.5212;6.4294;
913145386203594;19.0076;22.4602;6.1976;
913145396203594;19.1296;22.4358;6.0024;
913145406203594;19.3370;22.4114;5.8316;
913145416203594;19.3980;22.3870;5.7462;
913145426203594;19.5200;22.3260;5.6730;
913145436203594;19.5810;22.2894;5.6364;
913145446203594;19.5444;22.2284;5.5876;
913145456203594;19.5078;22.1796;5.6242;
913145466203594;19.4712;22.1308;5.6364;
913145476203594;19.5444;22.1064;5.5754;
913145486203594;19.6298;22.0332;5.5510;
913145496203594;19.8372;21.9600;5.3802;
913145506203594;20.0080;21.9356;5.2338;
913145516203594;20.1910;21.8990;5.1728;
913145526203594;20.3984;21.8990;5.0874;
913145536203594;20.5326;21.8746;5.0630;
913145546203594;20.5814;21.8136;5.1240;
913145556203594;20.5326;21.7282;5.1972;
913145566203594;20.4472;21.6672;5.3680;
913145576203594;20.2642;21.5574;5.6730;
913145586203594;20.1788;21.4598;5.8682;
913145596203594;20.0324;21.3866;6.0878;
913145606203594;19.9836;21.3012;6.2098;
913145616203594;19.8982;21.2158;6.3928;
913145626203594;19.9470;21.1548;6.3928;
913145636203594;20.0446;21.0816;6.4904;
913145646203594;20.1178;21.0084;6.4050;
913145656203594;20.1056;20.9840;6.5148;
913145666203594;20.0446;20.9596;6.6612;
913145676203594;20.0080;20.8620;6.6978;
913145686203594;19.9226;20.7766;6.8808;
913145696203594;19.8860;20.7400;6.9540;
913145706203594;19.7762;20.6912;7.0760;
913145716203594;19.6664;20.6668;7.1370;
913145726203594;19.6786;20.6424;7.2346;
913145736203594;19.7152;20.5936;7.1614;
913145746203594;19.8128;20.5326;7.0516;
913145756203594;19.8860;20.5326;6.9540;
913145766203594;19.8738;20.4960;6.9296;
913145776203594;19.9226;20.4594;6.8564;
913145786203594;20.0934;20.3984;6.7100;
913145796203594;20.2276;20.3618;6.6002;
913145806203594;20.3008;20.3252;6.5026;
913145816203594;20.4960;20.2886;6.2952;
913145826203594;20.5204;20.2276;6.3074;
913145836203594;20.5936;20.1422;6.3318;
913145846203594;20.6424;20.1056;6.2952;
913145856203594;20.6180;20.0446;6.4050;
913145866203594;20.5692;20.0080;6.4538;
913145876203594;20.5204;19.9836;6.5514;
913145886203594;20.3862;19.9104;6.7222;
913145896203594;20.2520;19.8372;6.9296;
913145906203594;20.1910;19.8128;7.0394;
913145916203594;20.1056;19.8128;7.2102;
913145926203594;20.0934;19.7884;7.2224;
913145936203594;20.0202;19.7884;7.2468;
913145946203594;19.9348;19.7640;7.3200;
913145956203594;19.9104;19.7640;7.3932;
913145966203594;20.0446;19.7762;7.2468;
913145976203594;20.0080;19.8372;7.2102;
913145986203594;20.0690;19.9104;7.0882;
913145996203594;20.1544;19.9104;6.9174;
913146006203594;20.2032;19.9592;6.9052;
913146016203594;20.1666;19.9836;6.9418;
913146026203594;20.0324;20.0080;7.0394;
913146036203594;19.8860;20.0446;7.1614;
913146046203594;19.6298;20.0812;7.3444;
913146056203594;19.5688;20.1544;7.4542;
913146066203594;19.5566;20.1910;7.3566;
913146076203594;19.4834;20.3008;7.3322;
913146086203594;19.4712;20.3862;7.1736;
913146096203594;19.5932;20.4838;6.9418;
913146106203594;20.0080;20.6058;6.4416;
913146116203594;20.2276;20.6912;6.0268;
913146126203594;20.4838;20.8376;5.6486;
913146136203594;20.5570;20.9474;5.3924;
913146146203594;20.5692;21.0328;5.2460;
913146156203594;20.6180;21.0816;5.0874;
913146166203594;20.7278;21.1792;4.8800;
913146176203594;20.7644;21.2646;4.7702;
913146186203594;20.6180;21.3134;4.8678;
913146196203594;20.5448;21.3744;4.8312;
913146206203594;20.4472;21.3744;4.7946;
913146216203594;20.5692;21.3500;4.6604;
913146226203594;20.6180;21.3622;4.6238;
913146236203594;20.6424;21.3622;4.6604;
913146246203594;20.4350;21.3256;4.8922;
913146256203594;20.4594;21.3012;4.8434;
913146266203594;20.4350;21.2646;4.8190;
913146276203594;20.5082;21.2280;4.7092;
913146286203594;20.6180;21.2158;4.6604;
913146296203594;20.6424;21.2280;4.5384;
913146306203594;20.6668;21.1792;4.5384;
913146316203594;20.8376;21.1792;4.4164;
913146326203594;21.0694;21.1426;4.1358;
913146336203594;21.2280;21.1060;3.9650;
913146346203594;21.3500;21.0938;3.8918;
913146356203594;21.3866;21.0328;3.8430;
913146366203594;21.4354;20.9840;3.8186;
913146376203594;21.3256;20.9108;3.9894;
913146386203594;21.2280;20.8864;4.1602;
913146396203594;21.0328;20.8132;4.3798;
913146406203594;20.8498;20.6912;4.7458;
913146416203594;20.7400;20.5814;5.0264;
913146426203594;20.5814;20.4716;5.2338;
913146436203594;20.7766;20.4106;5.2094;
913146446203594;20.7034;20.2764;5.4168;
913146456203594;20.7278;20.1666;5.5388;
913146466203594;20.7888;20.0812;5.5754;
913146476203594;20.8254;19.9958;5.5266;
913146486203594;20.9840;19.9592;5.3680;
913146496203594;21.0572;19.8860;5.3558;
913146506203594;21.1548;19.8250;5.3314;
913146516203594;21.0816;19.7396;5.5388;
913146526203594;21.1182;19.7518;5.5754;
913146536203594;21.2402;19.7274;5.4900;
913146546203594;21.2890;19.6054;5.5022;
913146556203594;21.3134;19.5200;5.5876;
913146566203594;21.3378;19.4468;5.6120;
913146576203594;21.3134;19.3858;5.6974;
913146586203594;21.3012;19.3492;5.7706;
913146596203594;21.3012;19.2882;5.8926;
913146606203594;21.4598;19.2028;5.8194;
913146616203594;21.4354;19.0564;5.9902;
913146626203594;21.4110;19.0320;6.0878;
913146636203594;21.3744;18.9954;6.2342;
913146646203594;21.2158;18.9344;6.5392;
913146656203594;21.0572;18.8612;6.8076;
913146666203594;20.9596;18.8368;6.9906;
913146676203594;20.7644;18.7636;7.2468;
913146686203594;20.4594;18.7270;7.6128;
913146696203594;20.2642;18.7392;7.8324;
913146706203594;20.1666;18.6904;7.9544;
913146716203594;20.0934;18.6172;8.0642;
913146726203594;20.1422;18.6050;8.1252;
913146736203594;20.1666;18.5806;8.1496;
913146746203594;20.1544;18.4830;8.2228;
913146756203594;20.0568;18.4586;8.3814;
913146766203594;20.0812;18.4464;8.3448;
913146776203594;20.3496;18.3976;7.9788;
913146786203594;20.6912;18.3610;7.6006;
913146796203594;20.8986;18.3610;7.3932;
913146806203594;21.1060;18.3366;7.1248;
913146816203594;21.2158;18.3244;7.0150;
913146826203594;21.3744;18.3000;6.8686;
913146836203594;21.6550;18.2512;6.5758;
913146846203594;21.8014;18.1536;6.5270;
913146856203594;21.7282;18.1048;6.8076;
913146866203594;21.5086;18.0072;7.1858;
913146876203594;21.4110;17.9096;7.4176;
913146886203594;21.2402;17.7632;7.6982;
913146896203594;21.1304;17.6046;7.9422;
913146906203594;21.0084;17.5436;8.2106;
913146916203594;20.9230;17.4216;8.4058;
913146926203594;20.8986;17.3362;8.4424;
913146936203594;20.7766;17.2264;8.6620;
913146946203594;20.7644;17.1898;8.7474;
913146956203594;20.6546;17.1532;8.8938;
913146966203594;20.5082;17.1166;9.0768;
913146976203594;20.5204;17.0678;9.0768;
913146986203594;20.6302;17.0434;8.9548;
913146996203594;20.7034;16.9946;8.8572;
913147006203594;20.6790;16.9946;8.9548;
913147016203594;20.6668;16.9702;9.0158;
913147026203594;20.5448;16.8970;9.1988;
913147036203594;20.4838;16.8604;9.2842;
913147046203594;20.4472;16.8726;9.3574;
913147056203594;20.3008;16.9214;9.5282;
913147066203594;20.0568;16.8848;9.7600;
913147076203594;19.8372;16.9580;10.0162;
913147086203594;19.6908;16.9458;10.1992;
913147096203594;19.7762;17.0068;10.0040;
913147106203594;19.9104;17.0922;9.6990;
913147116203594;20.1056;17.1288;9.3940;
913147126203594;20.2886;17.1898;9.0890;
913147136203594;20.4716;17.1898;8.8206;
913147146203594;20.5082;17.2508;8.7474;
913147156203594;20.5326;17.3118;8.5888;
913147166203594;20.5448;17.3728;8.4424;
913147176203594;20.4472;17.3606;8.4912;
913147186203594;20.3130;17.3728;8.6132;
913147196203594;20.1788;17.4216;8.7718;
913147206203594;20.0324;17.4338;8.9182;
913147216203594;20.0324;17.4582;8.8816;
913147226203594;20.1788;17.5070;8.6742;
913147236203594;20.2398;17.4338;8.6376;
913147246203594;20.3496;17.4338;8.5644;
913147256203594;20.3862;17.5070;8.5644;
913147266203594;20.4716;17.5314;8.5766;
913147276203594;20.5326;17.5558;8.5400;
913147286203594;20.6180;17.5802;8.4790;
913147296203594;20.5692;17.6290;8.5278;
913147306203594;20.4716;17.6656;8.6010;
913147316203594;20.5082;17.7388;8.5888;
913147326203594;20.4960;17.7876;8.6132;
913147336203594;20.5326;17.8242;8.4912;
913147346203594;20.4594;17.8608;8.4424;
913147356203594;20.3618;17.8852;8.4790;
913147366203594;20.2886;17.9218;8.4668;
913147376203594;20.1910;17.9218;8.5156;
913147386203594;20.0934;17.8852;8.6498;
913147396203594;19.8250;17.8974;8.8450;
913147406203594;19.6542;17.8974;9.0036;
913147416203594;19.3370;17.9340;9.2598;
913147426203594;19.0686;17.9584;9.6014;
913147436203594;19.0076;18.0072;9.6502;
913147446203594;18.9100;17.9950;9.7234;
913147456203594;18.8490;18.0316;9.8698;
913147466203594;18.8002;18.1048;9.8332;
913147476203594;18.9222;18.1414;9.6746;
913147486203594;19.0442;18.1536;9.6014;
913147496203594;19.2272;18.1292;9.4428;
913147506203594;19.4468;18.1414;9.2964;
913147516203594;19.4956;18.1292;9.2110;
913147526203594;19.5200;18.1170;9.2720;
913147536203594;19.6298;18.1170;9.2110;
913147546203594;19.7518;18.0926;9.0646;
913147556203594;19.6298;18.0560;9.3208;
913147566203594;19.3858;18.0560;9.4794;
913147576203594;19.2028;18.0194;9.7478;
913147586203594;19.0320;17.9706;9.9308;
913147596203594;18.8368;17.9340;10.1992;
913147606203594;18.8124;17.9340;10.2480;
913147616203594;18.7636;17.9340;10.2602;
913147626203594;18.7148;17.9462;10.3700;
913147636203594;18.9588;17.9950;10.1382;
913147646203594;19.1784;18.0072;9.9064;
913147656203594;19.4224;18.0560;9.7112;
913147666203594;19.6420;18.1048;9.4062;
913147676203594;19.8860;18.1048;9.1012;
913147686203594;20.0690;18.1292;8.9060;
913147696203594;20.1056;18.1048;8.7840;
913147706203594;20.1666;18.0804;8.7596;
913147716203594;20.0446;18.0316;8.8938;
913147726203594;20.0080;17.9828;8.9304;
913147736203594;19.9104;17.9950;8.9914;
913147746203594;20.0568;17.9706;8.8084;
913147756203594;19.9470;17.9462;8.9548;
913147766203594;19.7762;17.9096;9.1500;
913147776203594;19.7274;17.9218;9.1866;
913147786203594;19.6786;17.8852;9.2354;
913147796203594;19.7396;17.8608;9.0890;
913147806203594;19.7640;17.8608;9.1500;
913147816203594;19.8372;17.7998;9.1500;
913147826203594;19.6054;17.7266;9.3696;
913147836203594;19.6908;17.7266;9.2598;
913147846203594;19.6664;17.7022;9.1866;
913147856203594;19.6786;17.6534;9.0524;
913147866203594;19.7640;17.6290;8.9548;
913147876203594;19.7640;17.6412;8.9426;
913147886203594;19.7762;17.5802;8.7840;
913147896203594;19.6786;17.5436;8.7718;
913147906203594;19.7030;17.5192;8.7108;
913147916203594;19.7396;17.4216;8.6132;
913147926203594;19.8250;17.4338;8.5522;
913147936203594;19.8616;17.4216;8.6986;
913147946203594;19.5688;17.3362;8.9304;
913147956203594;19.3858;17.2630;8.9792;
913147966203594;19.1052;17.2264;9.1622;
913147976203594;18.9344;17.1654;9.0768;
