Sensor: mmc5603x Magnetometer Non-wakeup
Vendor: memsic
TimestampMag [ns]; MagX [uT]; MagY [uT]; MagZ [uT]
78260684596240;27.2060;0.1098;27.3768;
78260694596240;27.2060;0.1098;27.3768;
78260705989990;26.7058;0.3538;28.2064;
78260715989990;27.3036;0.4758;27.5476;
78260725989990;27.4622;0.4636;27.2792;
78260735989990;27.6330;0.4514;27.0230;
78260745989990;27.8282;0.5246;26.8278;
78260755989990;27.8526;0.5490;26.7180;
78260765989990;28.0356;0.6466;26.5838;
78260775989990;28.2186;0.7442;26.4618;
78260785989990;28.4626;0.7564;26.2300;
78260795989990;28.3772;0.7320;26.3276;
78260805989990;28.4748;0.8174;26.3764;
78260815989990;28.3528;0.8296;26.5838;
78260825989990;28.1820;0.7808;26.7790;
78260835989990;28.1698;0.8052;26.9376;
78260845989990;28.1088;0.7564;26.9864;
78260855989990;27.9868;0.7198;27.0230;
78260865989990;27.8160;0.7076;27.1450;
78260875989990;27.6208;0.6954;27.4500;
78260885989990;27.3036;0.6222;27.6452;
78260895989990;27.1938;0.5856;27.8160;
78260905989990;27.1450;0.5856;27.9136;
78260915989990;27.1084;0.5612;27.8770;
78260925989990;27.0840;0.5612;27.8526;
78260935989990;27.0840;0.5490;27.8892;
78260945989990;27.1328;0.5612;27.8892;
78260955989990;27.2304;0.5612;27.7672;
78260965989990;27.3402;0.5978;27.8038;
78260975989990;27.5354;0.6588;27.5598;
78260985989990;27.7184;0.6588;27.3280;
78260995989990;27.8038;0.6954;27.3158;
78261005989990;27.8770;0.6466;27.2914;
78261015989990;27.9258;0.6222;27.1328;
78261025989990;27.9868;0.5856;27.0718;
78261035989990;28.1088;0.5978;26.8766;
78261045989990;28.3284;0.5978;26.5106;
78261055989990;28.4626;0.5612;26.3032;
78261065989990;28.6822;0.5856;26.0958;
78261075989990;28.9140;0.4880;25.7786;
78261085989990;29.1336;0.5246;25.4492;
78261095989990;29.3898;0.5368;25.2662;
78261105989990;29.6948;0.5002;24.9124;
78261115989990;29.7436;0.4270;24.7416;
78261125989990;29.7802;0.3782;24.7660;
78261135989990;29.6826;0.2928;24.8880;
78261145989990;29.5118;0.2074;25.0954;
78261155989990;29.3532;0.1830;25.3028;
78261165989990;29.2312;0.0854;25.4614;
78261175989990;29.0970;-0.0244;25.5712;
78261185989990;28.9750;-0.0732;25.7664;
78261195989990;29.0238;-0.1220;25.7908;
78261205989990;28.9994;-0.1830;25.7054;
78261215989990;28.9994;-0.1952;25.7664;
78261225989990;28.8530;-0.3050;25.9494;
78261235989990;28.7676;-0.3172;26.0836;
78261245989990;28.6212;-0.3294;26.2910;
78261255989990;28.5602;-0.3538;26.5350;
78261265989990;28.3650;-0.4148;26.7790;
78261275989990;28.2186;-0.4514;27.0718;
78261285989990;28.1332;-0.4880;27.3768;
78261295989990;28.0356;-0.5246;27.5720;
78261305989990;27.9380;-0.5246;27.6696;
78261315989990;27.7062;-0.5978;27.8770;
78261325989990;27.5598;-0.6710;28.1088;
78261335989990;27.3890;-0.7198;28.2308;
78261345989990;27.3158;-0.7564;28.3284;
78261355989990;27.2182;-0.7564;28.4504;
78261365989990;27.1084;-0.7808;28.5480;
78261375989990;27.1084;-0.8052;28.5480;
78261385989990;27.2182;-0.8174;28.4870;
78261395989990;27.4744;-0.8296;28.2918;
78261405989990;27.6086;-0.8052;28.1576;
78261415989990;27.7794;-0.7808;27.8892;
78261425989990;28.0234;-0.7198;27.5110;
78261435989990;28.2186;-0.7808;27.2426;
78261445989990;28.3284;-0.7808;27.1206;
78261455989990;28.5114;-0.7930;26.8888;
78261465989990;28.5968;-0.7930;26.7790;
78261475989990;28.7188;-0.7930;26.6814;
78261485989990;28.9018;-0.7808;26.4496;
78261495989990;29.0604;-0.7930;26.2544;
78261505989990;29.1092;-0.7930;26.2422;
78261515989990;29.1458;-0.7808;26.2300;
78261525989990;29.1214;-0.8052;26.1202;
78261535989990;28.9750;-0.8174;26.2300;
78261545989990;29.0482;-0.7930;26.1812;
78261555989990;28.9262;-0.8174;26.2056;
78261565989990;28.7310;-0.8174;26.3520;
78261575989990;28.5724;-0.8418;26.5228;
78261585989990;28.3650;-0.9272;26.6936;
78261595989990;28.1210;-0.9150;26.9864;
78261605989990;28.0478;-0.9394;27.1694;
78261615989990;27.9746;-1.0370;27.2304;
78261625989990;27.7794;-1.1468;27.4134;
78261635989990;27.6940;-1.1834;27.5232;
78261645989990;27.7306;-1.2444;27.6208;
78261655989990;27.7306;-1.3054;27.6940;
78261665989990;27.8160;-1.3664;27.6818;
78261675989990;27.9746;-1.4518;27.5476;
78261685989990;28.0478;-1.5250;27.4378;
78261695989990;28.2308;-1.5372;27.2426;
78261705989990;28.4626;-1.5738;26.9986;
78261715989990;28.5602;-1.6470;26.7546;
78261725989990;28.6212;-1.7202;26.4252;
78261735989990;28.6334;-1.7568;26.4740;
78261745989990;28.6822;-1.7690;26.4374;
78261755989990;28.7066;-1.8422;26.2910;
78261765989990;28.7920;-1.9276;26.1812;
78261775989990;28.8164;-1.9764;26.1446;
78261785989990;28.6822;-2.0374;26.1324;
78261795989990;28.6822;-2.0252;26.2666;
78261805989990;28.7188;-2.0984;26.4496;
78261815989990;28.5358;-2.1960;26.4496;
78261825989990;28.2308;-2.2814;26.6692;
78261835989990;27.9990;-2.2936;26.9986;
78261845989990;27.8404;-2.3180;27.1450;
78261855989990;27.6940;-2.3180;27.3402;
78261865989990;27.6574;-2.3058;27.4988;
78261875989990;27.7062;-2.4156;27.4866;
78261885989990;27.6452;-2.4034;27.5232;
78261895989990;27.7672;-2.3546;27.5354;
78261905989990;27.8770;-2.3912;27.4866;
78261915989990;27.9258;-2.4522;27.4134;
78261925989990;27.9990;-2.4766;27.3158;
78261935989990;28.1332;-2.5620;27.1450;
78261945989990;28.2186;-2.6230;26.9742;
78261955989990;28.2064;-2.6474;27.0352;
78261965989990;28.3162;-2.6840;26.9742;
78261975989990;28.4992;-2.7572;26.5838;
78261985989990;28.8042;-2.7450;26.3398;
78261995989990;29.0604;-2.8060;26.0226;
78262005989990;29.1458;-2.8792;25.9494;
78262015989990;29.0604;-2.9402;25.9738;
78262025989990;29.0238;-3.0134;26.0958;
78262035989990;28.9994;-3.0744;26.0714;
78262045989990;28.9872;-3.1354;25.9860;
78262055989990;29.0238;-3.2086;26.0958;
78262065989990;29.0116;-3.3062;26.0958;
78262075989990;28.9750;-3.3428;26.1446;
78262085989990;29.0360;-3.3916;26.1446;
78262095989990;29.1458;-3.4526;26.0958;
78262105989990;29.0482;-3.5258;26.1446;
78262115989990;29.0360;-3.5868;26.0958;
78262125989990;28.9872;-3.7210;26.1568;
78262135989990;28.7676;-3.8308;26.2666;
78262145989990;28.6822;-3.8918;26.3764;
78262155989990;28.7432;-3.9284;26.3276;
78262165989990;28.5846;-4.0016;26.4130;
78262175989990;28.4138;-4.0504;26.4862;
78262185989990;28.6944;-4.1114;26.2422;
78262195989990;28.7554;-4.2090;26.1324;
78262205989990;28.8652;-4.2700;25.8396;
78262215989990;29.0482;-4.2700;25.7054;
78262225989990;28.9750;-4.3432;25.6322;
78262235989990;28.7798;-4.4896;25.7908;
78262245989990;28.7920;-4.5262;25.8762;
78262255989990;28.8164;-4.6116;25.9494;
78262265989990;28.5358;-4.7214;26.1934;
78262275989990;28.3406;-4.7458;26.4130;
78262285989990;28.1698;-4.7824;26.7058;
78262295989990;28.0600;-4.8922;26.7912;
78262305989990;28.0112;-5.0020;26.7912;
78262315989990;27.9990;-5.0386;26.7424;
78262325989990;27.8404;-5.1728;26.5594;
78262335989990;27.7428;-5.2460;26.4252;
78262345989990;27.7550;-5.2948;26.2788;
78262355989990;27.8404;-5.3802;26.0592;
78262365989990;27.8160;-5.4534;25.9128;
78262375989990;27.7672;-5.4900;25.8762;
78262385989990;27.8038;-5.5510;25.7664;
78262395989990;27.8770;-5.6120;25.5224;
78262405989990;28.0844;-5.5876;25.3882;
78262415989990;28.3650;-5.6364;25.3150;
78262425989990;28.6334;-5.6120;25.0832;
78262435989990;28.8774;-5.5754;24.9978;
78262445989990;29.0726;-5.5266;24.9368;
78262455989990;29.1214;-5.5022;24.9246;
78262465989990;29.2190;-5.4046;25.0344;
78262475989990;29.2556;-5.3314;25.2296;
78262485989990;29.3166;-5.2826;25.3150;
78262495989990;29.2312;-5.2582;25.3394;
78262505989990;29.1702;-5.2704;25.4980;
78262515989990;29.0238;-5.3070;25.6810;
78262525989990;28.9506;-5.3192;25.8274;
78262535989990;28.9384;-5.3192;26.0226;
78262545989990;28.9018;-5.3436;26.0348;
78262555989990;28.9994;-5.3436;25.9006;
78262565989990;28.9994;-5.2948;25.8884;
78262575989990;28.9506;-5.2704;25.9006;
78262585989990;28.8530;-5.2582;25.8762;
78262595989990;28.7798;-5.2460;25.8518;
78262605989990;28.6944;-5.2216;25.9616;
78262615989990;28.5602;-5.2094;25.8884;
78262625989990;28.3772;-5.1972;26.1202;
78262635989990;28.1454;-5.2338;26.4862;
78262645989990;28.0112;-5.3314;26.5838;
78262655989990;27.9746;-5.3070;26.6082;
78262665989990;27.8892;-5.2826;26.7790;
78262675989990;27.8526;-5.2704;26.8644;
78262685989990;27.7062;-5.3192;26.8766;
78262695989990;27.7184;-5.3070;26.9864;
78262705989990;27.8282;-5.3314;26.7546;
78262715989990;27.8648;-5.3436;26.4862;
78262725989990;27.7550;-5.3070;26.6326;
78262735989990;27.6208;-5.3192;26.7790;
78262745989990;27.6818;-5.3436;26.7302;
78262755989990;27.6330;-5.3558;26.7546;
78262765989990;27.6818;-5.3924;26.7546;
78262775989990;27.7428;-5.4656;26.6326;
78262785989990;27.6818;-5.4656;26.7424;
78262795989990;27.6208;-5.5022;26.8888;
78262805989990;27.6452;-5.6120;26.7790;
78262815989990;27.5842;-5.7096;26.7790;
78262825989990;27.4988;-5.7950;26.8156;
78262835989990;27.4134;-5.9414;26.7302;
78262845989990;27.2914;-6.0634;26.5716;
78262855989990;26.9986;-6.1854;26.6448;
78262865989990;26.8766;-6.3562;26.4374;
78262875989990;26.9620;-6.4782;26.2910;
78262885989990;27.0840;-6.5758;26.2178;
78262895989990;27.2914;-6.6978;26.0226;
78262905989990;27.2914;-6.8686;26.0104;
78262915989990;27.3768;-7.0394;25.9860;
78262925989990;27.5598;-7.1980;25.9738;
78262935989990;27.7794;-7.4054;25.8640;
78262945989990;27.8526;-7.6128;25.9982;
78262955989990;27.7428;-7.8690;26.1324;
78262965989990;27.5964;-8.1862;26.1812;
78262975989990;27.3768;-8.4912;26.3764;
78262985989990;27.3402;-8.8206;26.3276;
78262995989990;27.3524;-9.0768;26.1446;
78263005989990;27.2304;-9.4184;26.1446;
78263015989990;27.2060;-9.7234;26.0470;
78263025989990;27.1328;-10.0406;25.9006;
78263035989990;27.1450;-10.3090;25.7054;
78263045989990;27.1694;-10.5408;25.6810;
78263055989990;27.3158;-10.7970;25.4126;
78263065989990;27.3158;-11.0166;25.2906;
78263075989990;27.2792;-11.2484;25.4126;
78263085989990;27.2914;-11.4070;25.3638;
78263095989990;27.3646;-11.6266;25.1808;
78263105989990;27.4256;-11.7486;25.0710;
78263115989990;27.4378;-11.8584;25.1320;
78263125989990;27.3036;-11.9560;25.0954;
78263135989990;27.1572;-12.0292;25.2540;
78263145989990;27.0474;-12.0780;25.4492;
78263155989990;26.9132;-12.1390;25.6200;
78263165989990;26.8644;-12.1390;25.7298;
78263175989990;26.7058;-12.1024;26.1202;
78263185989990;26.6326;-12.0780;26.3764;
78263195989990;26.5960;-12.0780;26.4130;
78263205989990;26.5350;-12.0780;26.5472;
78263215989990;26.5472;-12.0902;26.5594;
78263225989990;26.5350;-12.0536;26.5838;
78263235989990;26.6082;-11.9804;26.5716;
78263245989990;26.6204;-11.9438;26.6814;
78263255989990;26.5472;-11.8706;26.5838;
78263265989990;26.5350;-11.7974;26.6082;
78263275989990;26.6082;-11.6998;26.5960;
78263285989990;26.7546;-11.5656;26.4374;
78263295989990;26.8278;-11.4192;26.3520;
78263305989990;26.9742;-11.3216;26.2910;
78263315989990;27.0840;-11.2606;26.0958;
78263325989990;27.0474;-11.1386;26.0226;
78263335989990;27.2670;-11.0288;26.0470;
78263345989990;27.3402;-10.9556;25.9860;
78263355989990;27.5354;-10.8580;25.7298;
78263365989990;27.5232;-10.7360;25.9128;
78263375989990;27.5354;-10.6262;25.9982;
78263385989990;27.3402;-10.4798;26.1690;
78263395989990;27.2060;-10.2846;26.4496;
78263405989990;27.1328;-10.0894;26.6692;
78263415989990;26.8278;-9.8942;26.8644;
78263425989990;26.7058;-9.6380;27.0962;
78263435989990;26.3886;-9.3940;27.6086;
78263445989990;26.3032;-9.1500;27.7428;
78263455989990;26.1446;-8.8206;27.9014;
78263465989990;26.2910;-8.4424;27.9258;
78263475989990;26.3642;-8.0764;27.9014;
78263485989990;26.4496;-7.7714;27.7916;
78263495989990;26.8034;-7.3566;27.6452;
78263505989990;26.9254;-6.9662;27.5842;
78263515989990;26.9376;-6.5880;27.5720;
78263525989990;27.0596;-6.1854;27.4866;
78263535989990;27.1938;-5.8194;27.5110;
78263545989990;27.1206;-5.5022;27.4500;
78263555989990;27.0596;-5.1484;27.5354;
78263565989990;27.1084;-4.7336;27.6086;
78263575989990;26.9254;-4.4774;27.6574;
78263585989990;26.8644;-4.2090;27.6696;
78263595989990;26.9620;-3.9040;27.5720;
78263605989990;27.0474;-3.7088;27.4500;
78263615989990;27.0352;-3.4648;27.3524;
78263625989990;27.0596;-3.2574;27.3890;
78263635989990;27.1694;-3.1110;27.2792;
78263645989990;27.1084;-3.0012;27.2914;
78263655989990;27.2304;-2.8060;27.3646;
78263665989990;27.3890;-2.6596;27.3280;
78263675989990;27.3280;-2.5742;27.3890;
78263685989990;27.3524;-2.4644;27.3280;
78263695989990;27.4378;-2.3790;27.3158;
78263705989990;27.5476;-2.3302;27.2182;
78263715989990;27.5598;-2.2936;27.1938;
78263725989990;27.6452;-2.2448;27.0962;
78263735989990;27.6696;-2.2204;26.9864;
78263745989990;27.5842;-2.1594;26.9742;
78263755989990;27.6818;-2.0984;26.9620;
78263765989990;27.7184;-2.0618;27.0108;
78263775989990;27.8648;-1.9398;26.8888;
78263785989990;27.9746;-1.8056;26.8400;
78263795989990;28.1332;-1.6836;26.7058;
78263805989990;28.2918;-1.6104;26.6082;
78263815989990;28.3040;-1.5006;26.5106;
78263825989990;28.2918;-1.3908;26.3398;
78263835989990;28.2186;-1.2688;26.2788;
78263845989990;27.9502;-1.1224;26.3764;
78263855989990;27.7184;-0.9638;26.6326;
78263865989990;27.4988;-0.8296;26.7180;
78263875989990;27.4134;-0.5734;26.9010;
78263885989990;27.3646;-0.3050;27.0230;
78263895989990;27.3768;-0.0732;27.0230;
78263905989990;27.4866;0.1586;27.0596;
78263915989990;27.6574;0.4514;26.9742;
78263925989990;27.9380;0.7808;26.7546;
78263935989990;28.2308;1.0492;26.3642;
78263945989990;28.5114;1.3176;26.1080;
78263955989990;28.7798;1.4884;25.7054;
78263965989990;28.8530;1.7690;25.4614;
78263975989990;29.0238;2.0618;25.2906;
78263985989990;29.0482;2.2692;25.2296;
78263995989990;29.0116;2.4766;25.3760;
78264005989990;28.7920;2.6352;25.6932;
78264015989990;28.7676;2.8060;25.7908;
78264025989990;28.7798;3.0378;25.8518;
78264035989990;28.6700;3.2086;26.0348;
78264045989990;28.6456;3.3428;26.1812;
78264055989990;28.5968;3.4404;26.3520;
78264065989990;28.7554;3.6112;26.2056;
78264075989990;28.8774;3.7454;25.9372;
78264085989990;29.1702;3.8674;25.5590;
78264095989990;29.1824;3.9650;25.4980;
78264105989990;29.1580;4.0382;25.5224;
78264115989990;29.1092;4.1968;25.5224;
78264125989990;29.1946;4.3066;25.4492;
78264135989990;29.0848;4.4530;25.5956;
78264145989990;28.8164;4.5384;25.9860;
78264155989990;28.6212;4.6482;26.3154;
78264165989990;28.4626;4.7458;26.5472;
78264175989990;28.3284;4.8800;26.7668;
78264185989990;28.2186;5.0142;26.9498;
78264195989990;28.1454;5.0508;27.0352;
78264205989990;27.8526;5.1850;27.2914;
78264215989990;27.7428;5.3070;27.3524;
78264225989990;27.7794;5.3924;27.2426;
78264235989990;27.8770;5.5022;26.9864;
78264245989990;27.9380;5.6608;26.8644;
78264255989990;27.8160;5.7706;26.9132;
78264265989990;27.8404;5.8682;26.7180;
78264275989990;27.8770;5.9902;26.6814;
78264285989990;28.0478;6.0878;26.5106;
78264295989990;28.0722;6.1732;26.5106;
78264305989990;27.9868;6.2952;26.6692;
78264315989990;27.9136;6.3928;26.7546;
78264325989990;27.8770;6.4416;26.7790;
78264335989990;27.9258;6.4904;26.8156;
78264345989990;27.7306;6.5758;27.1084;
78264355989990;27.5964;6.6856;27.2426;
78264365989990;27.5964;6.7344;27.2426;
78264375989990;27.6208;6.7710;27.1328;
78264385989990;27.6086;6.8564;27.1572;
78264395989990;27.6086;6.9296;27.2060;
78264405989990;27.6086;6.9906;27.1572;
78264415989990;27.7428;7.0638;26.9498;
78264425989990;27.9380;7.1126;26.6814;
78264435989990;27.8648;7.1126;26.7912;
78264445989990;27.6696;7.1248;27.0352;
78264455989990;27.6086;7.1736;27.0718;
78264465989990;27.6452;7.1980;26.9986;
78264475989990;27.6208;7.2102;27.0108;
78264485989990;27.6086;7.2346;27.1084;
78264495989990;27.5476;7.2346;27.2060;
78264505989990;27.5720;7.2346;27.1572;
78264515989990;27.7916;7.2468;26.9864;
78264525989990;27.9380;7.2712;26.7668;
78264535989990;28.0600;7.2590;26.6814;
78264545989990;28.1942;7.2346;26.5960;
78264555989990;28.2674;7.1736;26.5106;
78264565989990;28.4626;7.1370;26.3642;
78264575989990;28.5846;7.0760;26.2056;
78264585989990;28.5358;6.9784;26.3032;
78264595989990;28.4626;6.8686;26.3398;
78264605989990;28.4504;6.7954;26.3520;
78264615989990;28.3772;6.6856;26.4130;
78264625989990;28.3406;6.5880;26.4252;
78264635989990;28.2308;6.4172;26.5594;
78264645989990;28.0112;6.2952;26.8522;
78264655989990;27.9014;6.1732;26.9620;
78264665989990;27.8892;6.0756;27.0596;
78264675989990;27.9746;5.9780;27.0474;
78264685989990;27.9624;5.8194;27.1328;
78264695989990;28.0844;5.6852;27.1816;
78264705989990;28.0600;5.5144;27.1938;
78264715989990;28.2308;5.4290;27.1206;
78264725989990;28.1088;5.2460;27.1694;
78264735989990;27.9502;5.0508;27.4256;
78264745989990;27.9014;4.9288;27.6086;
78264755989990;27.7916;4.7458;27.6574;
78264765989990;27.7550;4.5384;27.6574;
78264775989990;27.6330;4.3554;27.7916;
78264785989990;27.4988;4.1968;27.9502;
78264795989990;27.2426;4.0382;28.2308;
78264805989990;27.1938;3.9284;28.3528;
78264815989990;27.2792;3.7698;28.2796;
78264825989990;27.2060;3.5746;28.1942;
78264835989990;27.0596;3.4160;28.3772;
78264845989990;26.9742;3.2940;28.5236;
78264855989990;26.8766;3.1842;28.4748;
78264865989990;26.9620;3.0622;28.4016;
78264875989990;27.0474;2.9646;28.2796;
78264885989990;27.1084;2.8060;28.2064;
78264895989990;27.0718;2.6962;28.2186;
78264905989990;27.1084;2.6230;28.2918;
78264915989990;27.1816;2.5132;28.2552;
78264925989990;27.2426;2.4888;28.2430;
78264935989990;27.3158;2.4522;28.2430;
78264945989990;27.3402;2.3790;28.2186;
78264955989990;27.4378;2.2692;28.0722;
78264965989990;27.5598;2.1838;27.8648;
78264975989990;27.7062;2.0740;27.7062;
78264985989990;27.7550;2.0008;27.5354;
78264995989990;27.8404;1.9398;27.3890;
78265005989990;27.9014;1.8178;27.2304;
78265015989990;28.0234;1.6592;27.0718;
78265025989990;28.0478;1.4884;27.0962;
78265035989990;28.1210;1.3420;27.0230;
78265045989990;28.1820;1.2078;26.9986;
78265055989990;28.0600;1.0980;27.2182;
78265065989990;28.0234;0.9150;27.3768;
78265075989990;27.9136;0.7198;27.5110;
78265085989990;27.8892;0.5002;27.6574;
78265095989990;27.8404;0.3294;27.7550;
78265105989990;27.7428;0.1342;27.8160;
78265115989990;27.5354;0.0000;28.1088;
78265125989990;27.2914;-0.1586;28.2918;
78265135989990;27.2548;-0.3172;28.3406;
78265145989990;27.2182;-0.4636;28.3894;
78265155989990;27.0718;-0.6100;28.5236;
78265165989990;26.9620;-0.7076;28.6212;
78265175989990;26.7912;-0.8662;28.7798;
78265185989990;26.7668;-0.9882;28.8530;
78265195989990;26.7180;-1.0858;28.9018;
78265205989990;26.7668;-1.2078;28.8774;
78265215989990;26.7302;-1.3176;28.8530;
78265225989990;26.7668;-1.4152;28.7188;
78265235989990;27.0230;-1.4640;28.4992;
78265245989990;27.0962;-1.5250;28.3894;
78265255989990;27.2426;-1.5372;28.1576;
78265265989990;27.2914;-1.5250;28.0600;
78265275989990;27.3524;-1.6226;27.9014;
78265285989990;27.1694;-1.6958;28.1454;
78265295989990;27.0962;-1.6958;28.2552;
78265305989990;26.8888;-1.7568;28.4504;
78265315989990;26.5838;-1.7934;28.7676;
78265325989990;26.5228;-1.8300;28.8042;
78265335989990;26.3642;-1.8544;28.9872;
78265345989990;26.2544;-1.8910;29.2190;
78265355989990;26.1934;-1.9032;29.3288;
78265365989990;26.3398;-1.8666;29.2434;
78265375989990;26.3520;-1.8788;29.2678;
78265385989990;26.2666;-1.8910;29.3532;
78265395989990;26.2300;-1.8666;29.3898;
78265405989990;26.1324;-1.8544;29.5240;
78265415989990;26.1446;-1.8788;29.5728;
78265425989990;26.2544;-1.9154;29.2800;
78265435989990;26.2788;-1.9032;29.1336;
78265445989990;26.2910;-1.9520;28.9506;
78265455989990;26.3276;-2.0130;28.7554;
78265465989990;26.5106;-2.0008;28.6456;
78265475989990;26.6570;-2.0008;28.4504;
78265485989990;26.7180;-2.0496;28.3528;
78265495989990;26.7912;-2.0740;28.3162;
78265505989990;26.5716;-2.0740;28.5358;
78265515989990;26.4252;-2.1106;28.7676;
78265525989990;26.3032;-2.0618;29.0482;
78265535989990;26.1690;-2.0496;29.1702;
78265545989990;26.0714;-2.0374;29.2922;
78265555989990;26.0470;-2.0862;29.3044;
78265565989990;26.1324;-2.0374;29.1702;
78265575989990;26.1202;-2.0374;29.0726;
78265585989990;26.2788;-2.0008;28.8896;
78265595989990;26.3886;-1.9886;28.6944;
78265605989990;26.4984;-1.9886;28.4504;
78265615989990;26.5594;-1.9764;28.4748;
78265625989990;26.6570;-1.9276;28.2430;
78265635989990;26.6692;-1.8422;28.2430;
78265645989990;26.5106;-1.7934;28.4016;
78265655989990;26.3886;-1.7324;28.5236;
78265665989990;26.2910;-1.6226;28.6578;
78265675989990;26.2788;-1.5250;28.7798;
78265685989990;26.1446;-1.4640;29.0482;
78265695989990;25.9494;-1.3542;29.2556;
78265705989990;25.7908;-1.2688;29.4508;
78265715989990;25.6566;-1.2078;29.6338;
78265725989990;25.5956;-1.1712;29.7680;
78265735989990;25.3516;-1.0858;30.1218;
78265745989990;25.3272;-1.0492;30.1096;
78265755989990;25.2174;-0.9394;30.1462;
78265765989990;25.3028;-0.8540;29.9266;
78265775989990;25.4370;-0.7564;29.7558;
78265785989990;25.4370;-0.6466;29.7558;
78265795989990;25.5468;-0.5734;29.6216;
78265805989990;25.7054;-0.4636;29.3776;
78265815989990;26.0592;-0.3294;28.9628;
78265825989990;26.1690;-0.2196;28.8774;
78265835989990;26.3032;-0.1830;28.6700;
78265845989990;26.3032;-0.0976;28.5480;
78265855989990;26.4008;-0.0366;28.3528;
78265865989990;26.4740;0.0366;28.1576;
78265875989990;26.4740;0.1098;28.0356;
78265885989990;26.4130;0.1952;28.1454;
78265895989990;26.0836;0.2318;28.4748;
78265905989990;26.0104;0.2684;28.4992;
78265915989990;26.0348;0.3782;28.4992;
78265925989990;26.1446;0.4514;28.5724;
78265935989990;26.1324;0.5246;28.7066;
78265945989990;26.2422;0.5978;28.6944;
78265955989990;26.3032;0.6466;28.7066;
78265965989990;26.4252;0.6954;28.5480;
78265975989990;26.8034;0.7564;28.1088;
78265985989990;26.8400;0.8174;28.0478;
78265995989990;27.0596;0.9028;27.7794;
78266005989990;26.9986;0.9516;27.8282;
78266015989990;27.0474;1.0370;27.7306;
78266025989990;26.9010;1.0492;27.8038;
78266035989990;26.7424;1.1102;27.9868;
78266045989990;26.6570;1.2322;28.0600;
78266055989990;26.4740;1.3054;28.2064;
78266065989990;26.2178;1.4152;28.5846;
78266075989990;25.8518;1.4640;29.0360;
78266085989990;25.7786;1.5738;29.0848;
78266095989990;25.7298;1.6958;29.0970;
78266105989990;25.8640;1.8300;28.9872;
78266115989990;25.9616;1.9520;28.8652;
78266125989990;25.8518;2.0008;28.9262;
78266135989990;25.8518;2.1228;28.9628;
78266145989990;25.9982;2.2082;28.7066;
78266155989990;26.1202;2.2936;28.5602;
78266165989990;26.1934;2.3424;28.4992;
78266175989990;26.0592;2.3668;28.5236;
78266185989990;25.9494;2.4522;28.5480;
78266195989990;26.0226;2.5132;28.4626;
78266205989990;26.1934;2.6230;28.2308;
78266215989990;26.3398;2.7206;27.9868;
78266225989990;26.3886;2.7938;27.8648;
78266235989990;26.2910;2.8792;27.9136;
78266245989990;26.1812;2.9768;27.9746;
78266255989990;26.1690;3.0622;28.0112;
78266265989990;26.1568;3.1110;28.1088;
78266275989990;26.0836;3.1842;28.1698;
78266285989990;25.9494;3.1842;28.3528;
78266295989990;25.8762;3.1964;28.4016;
78266305989990;25.6932;3.1964;28.6212;
78266315989990;25.6688;3.1842;28.7310;
78266325989990;25.8152;3.2330;28.5602;
78266335989990;26.0592;3.2696;28.3040;
78266345989990;26.2056;3.3428;28.0844;
78266355989990;26.3520;3.3550;27.8770;
78266365989990;26.4740;3.4038;27.7428;
78266375989990;26.5960;3.4282;27.6696;
78266385989990;26.8766;3.4770;27.3402;
78266395989990;27.2182;3.5746;26.9864;
78266405989990;27.3158;3.5746;26.8034;
78266415989990;27.2914;3.6478;26.8522;
78266425990175;27.3402;3.6478;26.7912;
78266435990175;27.3036;3.7088;26.8522;
78266445990175;27.2426;3.7576;26.9254;
78266455990175;27.1084;3.8186;27.0352;
78266465990175;27.1328;3.8674;27.0108;
78266475990175;27.0474;3.9284;27.0596;
78266485990175;26.9864;4.0016;27.1694;
78266495990175;27.0474;4.0626;27.0718;
78266505990175;26.9986;4.1724;27.0596;
78266515990175;27.0230;4.2334;27.0108;
78266525990175;27.1938;4.3310;26.8522;
78266535990175;27.3402;4.4286;26.7912;
78266545990175;27.2548;4.5262;26.8522;
78266555990175;27.0962;4.5628;26.9376;
78266565990175;26.9498;4.6116;27.1816;
78266575990175;26.8400;4.6604;27.3524;
78266585990175;26.6448;4.6238;27.5964;
78266595990175;26.4618;4.6604;27.8282;
78266605990175;26.2910;4.7458;27.9258;
78266615990175;26.1690;4.7580;27.9746;
78266625990175;26.2300;4.7824;27.9502;
78266635990175;26.1080;4.8556;28.1088;
78266645990175;26.0592;4.8800;28.1210;
78266655990175;26.0104;4.8922;28.2308;
78266665990175;26.0348;4.9898;28.3162;
78266675990175;26.0836;5.0386;28.3040;
78266685990175;26.0714;5.0752;28.3406;
78266695990175;26.0714;5.0874;28.3650;
78266705990175;26.0592;5.0996;28.3894;
78266715990175;26.0836;5.1362;28.3162;
78266725990175;26.2300;5.1972;28.0722;
78266735990175;26.3154;5.2826;27.9136;
78266745990175;26.4496;5.3192;27.7184;
78266755990175;26.5106;5.3314;27.5964;
78266765990175;26.5960;5.3192;27.4866;
78266775990175;26.6692;5.3680;27.3402;
78266785990175;26.6204;5.4290;27.4134;
78266795990175;26.7058;5.4290;27.3768;
78266805990175;26.6326;5.4168;27.4988;
78266815990175;26.4984;5.3558;27.6086;
78266825990175;26.4374;5.3436;27.6086;
78266835990175;26.4618;5.3436;27.5964;
78266845990175;26.2788;5.3192;27.7672;
78266855990175;26.1812;5.2460;27.8648;
78266865990175;26.0836;5.2216;27.9990;
78266875990175;25.9372;5.1362;28.1698;
78266885990175;25.8274;5.0630;28.2552;
78266895990175;25.8274;5.0386;28.2796;
78266905990175;25.7908;4.9532;28.3772;
78266915990175;25.7786;4.9166;28.4626;
78266925990175;25.8152;4.8922;28.4870;
78266935990175;25.8030;4.8434;28.6212;
78266945990175;25.9250;4.7824;28.5358;
78266955990175;25.9738;4.7946;28.4382;
78266965990175;26.1934;4.7702;28.3040;
78266975990175;26.2788;4.7092;28.2552;
78266985990175;26.4740;4.7092;28.0478;
78266995990175;26.5594;4.6360;27.7672;
78267005990175;26.7302;4.5506;27.4866;
78267015990175;26.9498;4.5506;27.2670;
78267025990175;26.9986;4.4896;27.1084;
78267035990175;27.0596;4.4408;27.1084;
78267045990175;26.9620;4.3676;27.2548;
78267055990175;26.8888;4.2944;27.2670;
78267065990175;26.8034;4.2090;27.4134;
78267075990175;26.6936;4.1358;27.7550;
78267085990175;26.5838;4.0748;27.9380;
78267095990175;26.4618;3.9528;28.1942;
78267105990175;26.3520;3.8552;28.3772;
78267115990175;26.4984;3.7454;28.2674;
78267125990175;26.4740;3.6478;28.3528;
78267135990175;26.5106;3.6112;28.3406;
78267145990175;26.4862;3.5258;28.3284;
78267155990175;26.5106;3.4282;28.2308;
78267165990175;26.5594;3.3550;28.2552;
78267175990175;26.5716;3.3184;28.1576;
78267185990175;26.5838;3.2452;28.1088;
78267195990175;26.5228;3.1842;28.2430;
78267205990175;26.5350;3.1476;28.1942;
78267215990175;26.4740;3.0622;28.2430;
78267225990175;26.4252;3.0378;28.3528;
78267235990175;26.3154;3.0378;28.4870;
78267245990175;26.1690;3.0012;28.6578;
78267255990175;26.0104;2.9524;28.7920;
78267265990175;26.0470;2.9036;28.8164;
78267275990175;26.0348;2.8548;28.7798;
78267285990175;25.9860;2.8304;28.7554;
78267295990175;26.0836;2.7938;28.6090;
78267305990175;26.2178;2.7694;28.4138;
78267315990175;26.4374;2.6962;28.1698;
78267325990175;26.5594;2.6230;28.0234;
78267335990175;26.6692;2.5742;27.9014;
78267345990175;26.7302;2.5620;27.8282;
78267355990175;26.7424;2.5010;27.7428;
78267365990175;26.9254;2.4400;27.5232;
78267375990175;27.0352;2.4278;27.4256;
78267385990175;27.0108;2.3668;27.3524;
78267395990175;27.0474;2.3546;27.3402;
78267405990175;27.1816;2.3302;27.1206;
78267415990175;27.3158;2.2814;26.9254;
78267425990175;27.4256;2.2082;26.7790;
78267435990175;27.5354;2.1472;26.7180;
78267445990175;27.5720;2.0862;26.7180;
78267455990175;27.6208;2.0008;26.6814;
78267465990175;27.7062;1.9398;26.7668;
78267475990175;27.7916;1.8178;26.6692;
78267485990175;27.7428;1.7690;26.8034;
78267495990175;27.6696;1.7080;26.9498;
78267505990175;27.5598;1.6226;27.1206;
78267515990175;27.5110;1.5860;27.1816;
78267525990175;27.4378;1.5250;27.3524;
78267535990175;27.4256;1.4762;27.3768;
78267545990175;27.4012;1.4152;27.4012;
78267555990175;27.3890;1.4030;27.4256;
78267565990175;27.3646;1.2932;27.4012;
78267575990175;27.3890;1.2200;27.4622;
78267585990175;27.3402;1.2078;27.5354;
78267595990175;27.2914;1.1346;27.5598;
78267605990175;27.3036;1.1102;27.5476;
78267615990175;27.1450;1.0614;27.7306;
78267625990175;27.0474;1.0004;27.7428;
78267635990175;26.8644;0.9028;27.9990;
78267645990175;26.7790;0.8784;28.1576;
78267655990175;26.7790;0.7564;28.1576;
78267665990175;26.8278;0.6710;28.0722;
78267675990175;26.9620;0.6588;28.0356;
78267685990175;26.9498;0.5246;28.1332;
78267695990175;27.1084;0.4758;28.0112;
78267705990175;27.2304;0.3782;27.9258;
78267715990175;27.4500;0.3416;27.6452;
78267725990175;27.6208;0.2928;27.4622;
78267735990175;27.6940;0.2928;27.2792;
78267745990175;27.9868;0.2440;26.9620;
78267755990175;28.0844;0.1830;26.7912;
78267765990175;28.3406;0.1586;26.4130;
78267775990175;28.3528;0.0976;26.2910;
78267785990175;28.3284;0.0610;26.3276;
78267795990175;28.1942;0.0000;26.5228;
78267805990175;28.0844;-0.0976;26.5838;
78267815990175;28.1454;-0.1586;26.6570;
78267825990175;27.8648;-0.2318;26.9742;
78267835990175;27.7306;-0.2684;27.0962;
78267845990175;27.5476;-0.2928;27.3524;
78267855990175;27.4622;-0.3660;27.4744;
78267865990175;27.3890;-0.3660;27.5476;
78267875990175;27.3890;-0.3660;27.5720;
78267885990175;27.3036;-0.3172;27.6208;
78267895990175;27.2182;-0.3416;27.6086;
78267905990175;27.2426;-0.3294;27.5598;
78267915990175;27.3280;-0.3538;27.5354;
78267925990175;27.4012;-0.3782;27.4378;
78267935990175;27.4744;-0.4026;27.2914;
78267945990175;27.5354;-0.4514;27.3158;
78267955990175;27.4866;-0.4636;27.2914;
78267965990175;27.6452;-0.4758;27.2670;
78267975990175;27.6574;-0.4636;27.3280;
78267985990175;27.6696;-0.5246;27.3036;
78267995990175;27.5110;-0.5490;27.4256;
78268005990175;27.4378;-0.5612;27.4256;
78268015990175;27.3280;-0.5002;27.6574;
78268025990175;27.2792;-0.4880;27.7306;
78268035990175;27.1694;-0.4880;27.8404;
78268045990175;27.1450;-0.4636;27.7672;
78268055990175;27.1206;-0.4148;27.7672;
78268065990175;27.0962;-0.3904;27.7916;
78268075990175;27.1694;-0.3538;27.7428;
78268085990175;27.1084;-0.2806;27.8282;
78268095990175;27.1816;-0.2562;27.8038;
78268105990175;27.2548;-0.2074;27.6330;
78268115990175;27.4134;-0.1464;27.4988;
78268125990175;27.4134;-0.1342;27.5476;
78268135990175;27.3402;-0.1220;27.6330;
78268145990175;27.4012;-0.0122;27.6696;
78268155990175;27.4012;0.0732;27.6574;
78268165990175;27.4378;0.1220;27.6208;
78268175990175;27.4744;0.1830;27.5598;
78268185990175;27.4134;0.2440;27.6574;
78268195990175;27.3524;0.2806;27.7184;
78268205990175;27.1694;0.3538;27.9380;
78268215990175;26.9864;0.4270;28.1820;
78268225990175;26.7912;0.4514;28.3528;
78268235990175;26.6570;0.5246;28.5724;
78268245990175;26.4618;0.6100;28.8042;
78268255990175;26.3032;0.6832;28.9628;
78268265990175;26.1812;0.7442;29.0482;
78268275990175;26.0348;0.8052;29.2556;
78268285990175;26.0958;0.8662;29.0848;
78268295990175;26.2422;0.9150;28.8774;
78268305990175;26.3886;0.9882;28.7554;
78268315990175;26.4496;1.0004;28.6334;
78268325990175;26.5960;1.0126;28.5114;
78268335990175;26.6204;1.0370;28.4260;
78268345990175;26.7424;1.0614;28.3284;
78268355990175;26.9254;1.1346;28.0234;
78268365990175;26.9498;1.1468;28.0478;
78268375990175;27.0108;1.1590;28.0478;
78268385990175;26.9986;1.1712;28.1088;
78268395990175;27.0230;1.2200;28.0600;
78268405990175;27.0962;1.2322;27.9624;
78268415990175;27.1450;1.2688;27.9746;
78268425990175;27.1572;1.2932;27.9502;
78268435990175;27.1938;1.2932;27.8770;
78268445990175;27.2914;1.3420;27.7672;
78268455990175;27.4500;1.4274;27.4500;
78268465990175;27.5354;1.4762;27.2670;
78268475990175;27.6452;1.5128;27.0840;
78268485990175;27.7184;1.5982;26.9620;
78268495990175;27.8282;1.7202;26.8156;
78268505990175;27.9014;1.8056;26.7302;
78268515990175;27.8892;1.9276;26.7790;
78268525990175;27.8770;1.9398;26.6936;
78268535990175;27.7428;2.0130;26.7790;
78268545990175;27.6696;2.0984;26.9132;
78268555990175;27.5110;2.1472;27.0108;
78268565990175;27.5110;2.2082;27.0474;
78268575990175;27.3768;2.2082;27.0718;
78268585990175;27.3280;2.2448;27.0352;
78268595990175;27.3646;2.2814;27.0108;
78268605990175;27.4012;2.4522;26.8766;
78268615990175;27.4988;2.4766;26.8400;
78268625990175;27.5232;2.5498;26.6936;
78268635990175;27.6086;2.6230;26.5960;
78268645990175;27.5842;2.7206;26.5838;
78268655990175;27.6452;2.7938;26.5228;
78268665990175;27.6696;2.9036;26.6326;
78268675990175;27.6330;2.9280;26.5838;
78268685990175;27.4988;2.9280;26.7424;
78268695990175;27.3402;3.0012;26.9742;
78268705990175;27.2548;2.9890;27.0596;
78268715990175;27.1816;3.0378;27.3158;
78268725990175;27.0352;3.0378;27.4988;
78268735990175;26.8888;3.0866;27.6574;
78268745990175;26.7668;3.0988;27.7550;
78268755990175;26.5838;3.1476;27.9746;
78268765990175;26.4984;3.1476;28.2430;
78268775990175;26.5594;3.1842;28.2308;
78268785990175;26.5960;3.2574;28.2064;
78268795990175;26.6448;3.2696;28.0966;
78268805990175;26.6692;3.2818;28.0112;
78268815990175;26.8034;3.3306;27.8648;
78268825990175;26.9864;3.3306;27.6330;
78268835990175;27.0840;3.2940;27.4866;
78268845990175;27.2304;3.2940;27.1084;
78268855990175;27.2304;3.2940;26.9742;
78268865990175;27.2548;3.2940;26.9864;
78268875990175;27.2792;3.3306;26.9864;
78268885990175;27.2182;3.3306;27.0840;
78268895990175;27.0352;3.3428;27.4012;
78268905990175;26.7302;3.3306;27.7428;
78268915990175;26.5960;3.3916;28.0112;
78268925990175;26.4252;3.4770;28.4260;
78268935990175;26.3276;3.4404;28.6578;
78268945990175;26.3276;3.4282;28.6578;
78268955990175;26.4740;3.4160;28.5114;
78268965990175;26.5594;3.4404;28.4504;
78268975990175;26.6204;3.4038;28.2918;
78268985990175;26.6936;3.4038;28.2186;
78268995990175;26.8522;3.3916;28.1210;
78269005990175;27.0352;3.3794;27.7550;
78269015990175;27.1084;3.3794;27.6208;
78269025990175;27.1450;3.3794;27.5842;
78269035990175;27.0108;3.3428;27.7672;
78269045990175;27.0596;3.3550;27.5720;
78269055990175;27.2548;3.3184;27.4134;
78269065990175;27.4012;3.3062;27.3036;
78269075990175;27.4622;3.2818;27.1694;
78269085990175;27.5598;3.2330;27.1206;
78269095990175;27.5598;3.2330;27.1572;
78269105990175;27.4378;3.2086;27.2914;
78269115990175;27.3890;3.1842;27.3158;
78269125990175;27.3646;3.1354;27.4622;
78269135990175;27.1572;3.1720;27.7062;
78269145990175;27.0474;3.1354;27.7794;
78269155990175;26.9986;3.1110;27.8526;
78269165990175;26.8888;3.0866;27.9868;
78269175990175;26.9376;3.0378;27.9502;
78269185990175;27.0718;3.0500;27.8404;
78269195990175;27.1450;3.0500;27.7672;
78269205990175;27.1572;3.0256;27.7428;
78269215990175;27.2548;2.9890;27.6330;
78269225990175;27.2670;2.9524;27.6574;
78269235990175;27.2182;2.9158;27.6452;
78269245990175;27.2060;2.8670;27.6940;
78269255990175;27.1816;2.8426;27.7306;
78269265990175;27.1206;2.7328;27.8282;
78269275990175;26.9864;2.6352;28.0112;
78269285990175;27.0230;2.5498;28.0600;
78269295990175;27.1328;2.5010;27.8770;
78269305990175;27.3402;2.4644;27.6574;
78269315990175;27.4622;2.4034;27.5842;
78269325990175;27.5720;2.3058;27.4622;
78269335990175;27.5842;2.2936;27.4378;
78269345990175;27.5598;2.2204;27.4744;
78269355990175;27.5842;2.1594;27.4134;
78269365990175;27.5232;2.0984;27.4744;
78269375990175;27.4622;2.0008;27.5598;
78269385990175;27.4500;1.9520;27.5598;
78269395990175;27.3890;1.8666;27.6208;
78269405990175;27.3646;1.8056;27.6086;
78269415990175;27.4622;1.6836;27.5232;
78269425990175;27.8892;1.6348;26.9376;
78269435990175;28.0844;1.5982;26.6448;
78269445990175;28.2674;1.4762;26.4496;
78269455990175;28.3162;1.3664;26.4130;
78269465990175;28.2918;1.2322;26.4740;
78269475990175;28.3162;1.1224;26.3642;
78269485990175;28.3894;1.0248;26.3276;
78269495990175;28.3894;0.8784;26.3032;
78269505990175;28.0722;0.7198;26.5594;
78269515990175;28.0600;0.5368;26.6326;
78269525990175;27.9014;0.4148;26.7424;
78269535990175;27.8404;0.2440;26.8522;
78269545990175;27.7062;0.1586;27.0352;
78269555990175;27.7062;0.0244;27.0352;
78269565990175;27.6574;-0.0732;27.0840;
78269575990175;27.5842;-0.1586;27.2182;
78269585990175;27.4744;-0.2562;27.4988;
78269595990175;27.3280;-0.3416;27.7794;
78269605990175;27.2792;-0.4148;27.9502;
78269615990175;27.2792;-0.4514;28.0234;
78269625990175;27.3036;-0.5734;28.0356;
78269635990175;27.2060;-0.6588;28.2186;
78269645990175;27.0718;-0.7808;28.4748;
78269655990175;27.0108;-0.9028;28.4626;
78269665990175;27.0718;-0.9760;28.4748;
78269675990175;27.1938;-1.0614;28.3894;
78269685990175;27.1816;-1.1712;28.3162;
78269695990175;27.1572;-1.3054;28.4016;
78269705990175;27.1084;-1.3786;28.4138;
78269715990175;27.1206;-1.4640;28.3528;
78269725990175;27.1084;-1.5616;28.3284;
78269735990175;27.0352;-1.6104;28.4870;
78269745990175;26.7546;-1.7080;28.7554;
78269755990175;26.5350;-1.7202;28.9384;
78269765990175;26.4862;-1.7812;28.9384;
78269775990175;26.3520;-1.8300;29.0238;
78269785990175;26.2178;-1.9032;29.2312;
78269795990175;26.0958;-1.9398;29.4996;
78269805990175;26.0958;-1.9520;29.4630;
78269815990175;26.1446;-1.9642;29.3898;
78269825990175;26.3764;-1.9764;29.1092;
78269835990175;26.4740;-2.0252;28.9506;
78269845990175;26.4130;-2.0862;29.0726;
78269855990175;26.4496;-2.0740;28.9750;
78269865990175;26.4618;-2.0740;28.8164;
78269875990175;26.5106;-2.0496;28.7066;
78269885990175;26.4130;-2.0618;28.8408;
78269895990175;26.2300;-2.1106;29.0970;
78269905990175;25.9616;-2.1106;29.4874;
78269915990175;25.7298;-2.0862;29.7436;
78269925990175;25.6200;-1.9886;29.9388;
78269935990175;25.4736;-1.9276;30.1462;
78269945990175;25.4248;-1.8788;30.3292;
78269955990175;25.2418;-1.9032;30.5610;
78269965990175;25.2052;-1.9154;30.6342;
78269975990175;25.3272;-1.8544;30.5244;
78269985990175;25.4614;-1.7934;30.2560;
78269995990175;25.6200;-1.7324;30.1340;
78270005990175;25.9494;-1.7324;29.6704;
78270015990175;26.2910;-1.6958;29.2434;
78270025990175;26.6082;-1.6714;28.8530;
78270035990175;26.9010;-1.5982;28.4870;
78270045990175;27.0718;-1.5250;28.2796;
78270055990175;27.1572;-1.4640;28.0966;
78270065990175;27.3768;-1.4762;27.9136;
78270075990175;27.5720;-1.4762;27.6574;
78270085990175;27.5232;-1.4640;27.7550;
78270095990175;27.5110;-1.4640;27.7916;
78270105990175;27.4012;-1.4762;27.9624;
78270115990175;27.3890;-1.4884;28.0844;
78270125990175;27.3158;-1.5006;28.1210;
78270135990175;27.2792;-1.5128;28.1820;
78270145990175;27.1206;-1.4762;28.4016;
78270155990175;27.0352;-1.4396;28.4870;
78270165990175;27.0108;-1.4396;28.5114;
78270175990175;26.8400;-1.4030;28.7066;
78270185990175;26.7424;-1.3786;28.7554;
78270195990175;26.5594;-1.3176;28.9018;
78270205990175;26.6692;-1.3054;28.7676;
78270215990175;26.7668;-1.2566;28.7310;
78270225990175;26.8888;-1.2322;28.4992;
78270235990175;26.8522;-1.2078;28.5480;
78270245990175;26.9254;-1.1346;28.4870;
78270255990175;27.0108;-1.1224;28.3894;
78270265990175;27.1450;-1.0614;28.2552;
78270275990175;27.3646;-1.0614;27.8648;
78270285990175;27.1938;-1.0736;28.0600;
78270295990175;27.1328;-1.0980;28.1698;
78270305990175;27.0596;-1.0492;28.2918;
78270315990175;27.1450;-1.0614;28.2674;
78270325990175;26.9742;-0.9882;28.4016;
78270335990175;26.9254;-0.9516;28.3894;
78270345990175;26.8766;-0.9028;28.4870;
78270355990175;26.7668;-0.8662;28.7310;
78270365990175;26.8644;-0.7442;28.7554;
78270375990175;26.7790;-0.6222;28.8408;
78270385990175;26.7912;-0.5490;28.8530;
78270395990175;26.6204;-0.5124;29.0482;
78270405990175;26.6692;-0.5368;29.0116;
78270415990175;26.6204;-0.5124;29.1946;
78270425990175;26.5106;-0.4880;29.3532;
78270435990175;26.2666;-0.4514;29.5362;
78270445990175;26.1446;-0.4270;29.6094;
78270455990175;26.2300;-0.4270;29.4264;
78270465990175;26.1690;-0.3904;29.5118;
78270475990175;26.1934;-0.2562;29.5362;
78270485990175;26.0592;-0.1586;29.7192;
78270495990175;25.9982;-0.1220;29.7802;
78270505990175;25.9738;-0.0366;29.8168;
78270515990175;26.0836;0.0366;29.8046;
78270525990175;26.1080;0.1098;29.8046;
78270535990175;26.0104;0.1830;29.9510;
78270545990175;25.9616;0.2196;30.0608;
78270555990175;25.9738;0.1708;29.9632;
78270565990175;26.0958;0.1708;29.8412;
78270575990175;26.2788;0.2318;29.6216;
78270585990175;26.4740;0.2806;29.3654;
78270595990175;26.5472;0.2928;29.1458;
78270605990175;26.6936;0.2806;28.9384;
78270615990175;26.6448;0.3172;28.9872;
78270625990175;26.7180;0.3782;28.7920;
78270635990175;26.7668;0.5124;28.7432;
78270645990175;26.7180;0.5612;28.7676;
78270655990175;26.5960;0.6588;28.8530;
78270665990175;26.4862;0.7198;28.9628;
78270675990175;26.4130;0.8052;29.1214;
78270685990175;26.2666;0.9272;29.3532;
78270695990175;26.3642;0.9760;29.1580;
78270705990175;26.4130;1.0126;29.1702;
78270715990175;26.3886;1.0004;29.1458;
78270725990175;26.4374;1.0370;29.0726;
78270735990175;26.5228;1.0248;28.9872;
78270745990175;26.4618;1.0004;28.9750;
78270755990175;26.4130;1.0004;29.0482;
78270765990175;26.4008;0.9516;29.0482;
78270775990175;26.3032;0.9150;29.2068;
78270785990175;26.0836;0.8662;29.4752;
78270795990175;26.0104;0.8540;29.6216;
78270805990175;25.8396;0.8052;29.8900;
78270815990175;25.6200;0.7442;30.1096;
78270825990175;25.5102;0.7076;30.3170;
78270835990175;25.5224;0.6466;30.2926;
78270845990175;25.4492;0.6100;30.2926;
78270855990175;25.3150;0.5734;30.3658;
78270865990175;25.3516;0.5246;30.2072;
78270875990175;25.4126;0.4148;30.0608;
78270885990175;25.5224;0.3660;29.9022;
78270895990175;25.6444;0.3050;29.8656;
78270905990175;25.8518;0.2318;29.6460;
78270915990175;25.8884;0.1464;29.5972;
78270925990175;26.0104;0.0610;29.4752;
78270935990175;26.1934;-0.0000;29.3654;
78270945990175;26.3398;-0.0732;29.3044;
78270955990175;26.3520;-0.1220;29.3898;
78270965990175;26.4130;-0.1830;29.3532;
78270975990175;26.4496;-0.2318;29.1824;
78270985990175;26.4252;-0.3050;29.2190;
78270995990175;26.4008;-0.3660;29.2434;
78271005990175;26.4008;-0.4392;29.2190;
78271015990175;26.3642;-0.5490;29.2190;
78271025990175;26.3642;-0.6100;29.1824;
78271035990175;26.3886;-0.6832;29.1214;
78271045990175;26.3154;-0.7930;29.1580;
78271055990175;26.3032;-0.8906;29.1946;
78271065990175;26.4008;-1.0004;29.0970;
78271075990175;26.5594;-1.0858;28.8164;
78271085990175;26.7912;-1.1712;28.6578;
78271095990175;26.9376;-1.2444;28.5724;
78271105990175;27.0962;-1.3542;28.3040;
78271115990175;27.2304;-1.4396;28.1820;
78271125990175;27.4500;-1.5128;27.9624;
78271135990175;27.6574;-1.5860;27.7916;
78271145990175;27.8648;-1.6348;27.5598;
78271155990175;28.1088;-1.6836;27.3768;
78271165990175;28.2186;-1.7446;27.2548;
78271175990175;28.3162;-1.8056;27.0962;
78271185990175;28.3894;-1.8544;27.0840;
78271195990175;28.4626;-1.8910;27.0108;
78271205990175;28.4748;-1.9520;26.9620;
78271215990175;28.4748;-2.0252;26.8888;
78271225990175;28.3284;-2.1472;27.0596;
78271235990175;28.1820;-2.2692;27.1450;
78271245990175;28.0356;-2.3424;27.2670;
78271255990175;28.0966;-2.4034;27.1450;
78271265990175;28.0966;-2.4644;27.1572;
78271275990175;28.0112;-2.5254;27.2670;
78271285990175;28.0356;-2.5498;27.3036;
78271295990175;28.0112;-2.5620;27.3646;
78271305990175;27.8770;-2.5620;27.4744;
78271315990175;27.7794;-2.5376;27.6574;
78271325990175;27.7306;-2.5864;27.7794;
78271335990175;27.5476;-2.6108;28.0722;
78271345990175;27.4378;-2.6352;28.2674;
78271355990175;27.3768;-2.6718;28.2186;
78271365990175;27.2182;-2.6840;28.4016;
78271375990175;27.0352;-2.7206;28.6944;
78271385990175;27.1206;-2.7084;28.6334;
78271395990175;27.1084;-2.7084;28.6700;
78271405990175;27.0962;-2.6962;28.6212;
78271415990175;27.0352;-2.6718;28.6578;
78271425990175;26.8400;-2.7084;28.8408;
78271435990175;26.6936;-2.7450;29.0848;
78271445990175;26.6936;-2.7572;29.1092;
78271455990175;26.8278;-2.8060;28.9262;
78271465990175;27.0230;-2.7938;28.6944;
78271475990175;27.1328;-2.8060;28.5114;
78271485990175;27.2792;-2.7816;28.3406;
78271495990175;27.5720;-2.7816;28.0234;
78271505990175;27.7672;-2.7206;27.7062;
78271515990175;27.9380;-2.6718;27.4378;
78271525990175;28.0356;-2.6352;27.2792;
78271535990175;28.0722;-2.5620;27.2060;
78271545990175;27.9136;-2.5864;27.3768;
78271555990175;27.9624;-2.5864;27.2914;
78271565990175;27.9624;-2.5986;27.3402;
78271575990175;27.8526;-2.5986;27.4500;
78271585990175;27.9502;-2.6108;27.3768;
78271595990175;28.0356;-2.5986;27.2548;
78271605990175;28.0600;-2.5742;27.2548;
78271615990175;28.0844;-2.5742;27.1816;
78271625990175;28.1088;-2.5376;27.2060;
78271635990175;27.9258;-2.4766;27.4500;
78271645990175;27.7062;-2.4522;27.6574;
78271655990175;27.6086;-2.3546;27.7916;
78271665990175;27.4012;-2.2936;28.0722;
78271675990175;27.2304;-2.2326;28.4138;
78271685990175;27.1694;-2.2082;28.4992;
78271695990175;26.9620;-2.1472;28.7798;
78271705990175;26.8522;-2.1228;28.9262;
78271715990175;26.9620;-2.0496;28.7798;
78271725990175;27.0718;-1.9764;28.6822;
78271735990175;27.1328;-1.9398;28.6456;
78271745990175;27.1816;-1.8544;28.5602;
78271755990175;27.1938;-1.7690;28.4260;
78271765990175;27.2060;-1.7080;28.4504;
78271775990175;27.3524;-1.5982;28.2674;
78271785990175;27.4134;-1.4640;28.2186;
78271795990175;27.2060;-1.3542;28.4748;
78271805990175;27.1084;-1.2566;28.5602;
78271815990175;27.0596;-1.1468;28.6334;
78271825990175;27.0596;-1.0858;28.5602;
78271835990175;27.0840;-0.9882;28.6090;
78271845990175;27.0596;-0.9150;28.5480;
78271855990175;27.0474;-0.8662;28.5358;
78271865990175;27.1084;-0.7808;28.4138;
78271875990175;27.2304;-0.7320;28.2308;
78271885990175;27.2426;-0.6466;28.2552;
78271895990175;27.2548;-0.5856;28.2674;
78271905990175;27.2182;-0.4880;28.3040;
78271915990175;27.2304;-0.3904;28.3528;
78271925990175;27.1694;-0.2928;28.4748;
78271935990175;27.1816;-0.2074;28.4748;
78271945990175;27.2182;-0.1708;28.5114;
78271955990175;27.2182;-0.0610;28.5724;
78271965990175;27.2548;0.0366;28.5480;
78271975990175;27.3036;0.0732;28.4382;
78271985990175;27.3158;0.1708;28.4992;
78271995990175;27.2548;0.1830;28.4260;
78272005990175;27.3280;0.2318;28.3772;
78272015990175;27.4256;0.2684;28.2796;
78272025990175;27.4744;0.3050;28.1820;
78272035990175;27.6208;0.3050;28.0478;
78272045990175;27.7428;0.2684;27.8770;
78272055990175;27.7916;0.3050;27.8648;
78272065990175;27.8282;0.2440;27.9258;
78272075990175;27.9868;0.2562;27.9380;
78272085990175;28.2430;0.2684;27.6086;
78272095990175;28.3772;0.3172;27.4988;
78272105990175;28.4992;0.3416;27.3280;
78272115990175;28.6456;0.3416;27.2182;
78272125990175;28.6700;0.4148;27.2060;
78272135990175;28.6090;0.4026;27.2914;
78272145990175;28.7188;0.4514;27.1450;
78272155990175;28.6578;0.4758;27.0962;
78272165990175;28.4260;0.5002;27.3646;
78272175990175;28.1332;0.4636;27.7306;
78272185990175;27.8892;0.4270;28.0356;
78272195990175;27.7306;0.4270;28.2186;
78272205990175;27.7916;0.3782;28.1332;
78272215990175;27.9258;0.4026;28.0112;
78272225990175;27.8404;0.3538;28.0356;
78272235990175;27.8770;0.3172;28.1088;
78272245990175;27.8770;0.2684;28.1454;
78272255990175;27.9380;0.2806;28.0356;
78272265990175;28.0234;0.3172;27.9014;
78272275990175;28.0112;0.2440;27.8770;
78272285990175;27.7794;0.1952;28.1576;
78272295990175;27.4744;0.1464;28.4748;
78272305990175;27.2426;0.1342;28.8652;
78272315990175;27.0718;0.2074;29.0116;
78272325990175;26.9986;0.1952;29.1336;
78272335990175;26.9010;0.1708;29.2434;
78272345990175;26.7912;0.1830;29.4386;
78272355990175;26.6448;0.2318;29.5606;
78272365990175;26.7424;0.3050;29.4386;
78272375990175;26.9620;0.3538;29.1458;
78272385990175;27.1694;0.3660;28.8286;
78272395990175;27.3402;0.2806;28.6090;
78272405990175;27.4134;0.2196;28.4504;
78272415990175;27.5110;0.1952;28.2064;
78272425990175;27.6940;0.1464;27.8770;
78272435990175;27.8282;0.1098;27.7062;
78272445990175;27.8404;0.0000;27.5842;
78272455990175;27.9136;-0.0488;27.4622;
78272465990175;28.0234;-0.0610;27.2426;
78272475990175;28.1820;-0.0854;27.1328;
78272485990175;28.3162;-0.0244;27.0230;
78272495990175;28.3406;-0.0610;27.0962;
78272505990175;28.3772;-0.1098;27.1450;
78272515990175;28.4260;-0.1708;27.0718;
78272525990175;28.5724;-0.1220;26.9986;
78272535990175;28.7554;-0.1708;26.8034;
78272545990175;28.7920;-0.2196;26.7546;
78272555990175;28.8530;-0.2318;26.6570;
78272565990175;28.8896;-0.2562;26.6082;
78272575990175;28.9384;-0.2806;26.4496;
78272585990175;28.8530;-0.2318;26.4740;
78272595990175;28.8164;-0.2074;26.5594;
78272605990175;28.7066;-0.2684;26.6570;
78272615990175;28.4138;-0.2562;27.0596;
78272625990175;28.2308;-0.2318;27.2426;
78272635990175;27.9868;-0.2318;27.4866;
78272645990175;27.9746;-0.2440;27.4866;
78272655990175;27.9624;-0.2196;27.4744;
78272665990175;28.0112;-0.2562;27.5598;
78272675990175;27.9746;-0.2440;27.5842;
78272685990175;27.9624;-0.2074;27.6574;
78272695990175;28.0356;-0.1830;27.5110;
78272705990175;28.1088;-0.1952;27.4256;
78272715990175;28.2918;-0.1708;27.2426;
78272725990175;28.3650;-0.2074;27.1084;
78272735990175;28.4016;-0.2074;27.1694;
78272745990175;28.4748;-0.2074;26.9010;
78272755990175;28.5968;-0.2440;26.7180;
78272765990175;28.6578;-0.2440;26.5838;
78272775990175;28.6944;-0.2806;26.5106;
78272785990175;28.7920;-0.2440;26.5228;
78272795990175;28.6822;-0.2806;26.5228;
78272805990175;28.6456;-0.2440;26.5106;
78272815990175;28.7310;-0.2562;26.3642;
78272825990175;28.6822;-0.2318;26.4862;
78272835990175;28.5358;-0.1952;26.5960;
78272845990175;28.4260;-0.1830;26.6936;
78272855990175;28.2674;-0.1586;26.8522;
78272865990175;28.1210;-0.2196;26.9376;
78272875990175;28.0600;-0.1708;27.0596;
78272885990175;27.8770;-0.1586;27.3402;
78272895990175;27.6086;-0.1830;27.5720;
78272905990175;27.3890;-0.1952;27.8282;
78272915990175;27.4866;-0.2074;27.8038;
78272925990175;27.4256;-0.2196;27.9746;
78272935990175;27.3158;-0.2562;28.1332;
78272945990175;27.2304;-0.1952;28.2308;
78272955990175;27.1816;-0.2196;28.3650;
78272965990175;27.1816;-0.2562;28.4260;
78272975990175;27.1694;-0.2074;28.5602;
78272985990175;27.2060;-0.1952;28.5968;
78272995990175;27.0352;-0.1708;28.7920;
78273005990175;26.9986;-0.1586;28.7554;
78273015990175;27.1816;-0.0976;28.5724;
78273025990175;27.2426;-0.0854;28.4748;
78273035990175;27.3768;-0.0610;28.2796;
78273045990175;27.4988;0.0488;28.0844;
78273055990175;27.6086;0.0488;27.8770;
78273065990175;27.6696;0.0488;27.7184;
78273075990175;27.7306;0.0610;27.6086;
78273085990175;27.8770;0.0854;27.5110;
78273095990175;27.8648;0.0732;27.5720;
78273105990175;27.8648;0.0976;27.5354;
78273115990175;27.7306;0.1220;27.6330;
78273125990175;27.6940;0.0854;27.6818;
78273135990175;27.6208;0.1586;27.7672;
78273145990175;27.6208;0.1952;27.7672;
78273155990175;27.6696;0.2440;27.7550;
78273165990175;27.7428;0.2806;27.5354;
78273175990175;27.8892;0.3416;27.2548;
78273185990175;28.0600;0.3782;27.0474;
78273195990175;28.2674;0.4026;26.6936;
78273205990175;28.4016;0.4392;26.4984;
78273215990175;28.5846;0.4270;26.2178;
78273225990175;28.6334;0.4758;26.0714;
78273235990175;28.5968;0.4758;25.9616;
78273245990175;28.4260;0.4514;26.0958;
78273255990175;28.4138;0.4392;26.0470;
78273265990175;28.3040;0.4514;26.0958;
78273275990175;28.1820;0.4636;26.2788;
78273285990175;28.1088;0.4636;26.2788;
78273295990175;28.0112;0.4514;26.3032;
78273305990175;28.1820;0.4880;25.9860;
78273315990175;28.0966;0.5246;26.0226;
78273325990175;28.0600;0.6100;26.0104;
78273335990175;27.9258;0.6588;26.1080;
78273345990175;28.0356;0.6832;25.9006;
78273355990175;28.0844;0.7442;25.7054;
78273365990175;28.1332;0.8174;25.5712;
78273375990175;28.1210;0.9028;25.5102;
78273385990175;27.8892;0.9516;25.7786;
78273395990175;27.7916;1.0004;25.8030;
78273405990175;27.7062;0.9882;25.7298;
78273415990175;27.6086;1.0492;25.7298;
78273425990175;27.2670;1.1346;25.9372;
78273435990175;26.9376;1.1712;26.1446;
78273445990175;26.5960;1.2078;26.2544;
78273455990175;26.3764;1.2200;26.2788;
78273465990175;26.1324;1.2078;26.3398;
78273475990175;26.0470;1.2322;26.2056;
78273485990175;25.9006;1.2932;26.1080;
78273495990175;25.6078;1.2566;26.1324;
78273505990175;25.4980;1.2444;26.0348;
78273515990175;25.4004;1.2444;25.9616;
78273525990175;25.2174;1.1956;25.9250;
78273535990175;25.0466;1.1712;25.9250;
78273545990175;24.8392;1.1346;25.8640;
78273555990175;24.6318;1.0370;25.8152;
78273565990175;24.6440;0.9516;25.7054;
78273575990175;24.6074;0.8906;25.5346;
78273585990175;24.4000;0.7808;25.4858;
78273595990175;24.2048;0.7320;25.4370;
78273605990175;24.0584;0.6588;25.3638;
78273615990175;23.8998;0.5612;25.2906;
78273625990175;23.7412;0.5490;25.2174;
78273635990175;23.6558;0.5612;25.1076;
78273645990175;23.4484;0.6100;25.0344;
78273655990175;23.3874;0.6588;24.8514;
78273665990175;23.4972;0.7686;24.6318;
78273675990175;23.5460;0.8784;24.3512;
78273685990175;23.5338;1.0492;24.2536;
78273695990175;23.6314;1.2932;24.0706;
78273705990175;23.7534;1.4762;23.8388;
78273715990175;23.8876;1.6836;23.6436;
78273725990175;23.9974;1.8788;23.4728;
78273735990175;24.0950;2.1472;23.3752;
78273745990175;24.2292;2.3912;23.1434;
78273755990175;24.4854;2.6352;22.8628;
78273765990175;24.8026;2.8670;22.5578;
78273775990175;24.9490;3.1354;22.3626;
78273785990175;25.1808;3.4648;22.0942;
78273795990175;25.3272;3.7942;22.0210;
78273805990175;25.4492;4.1480;21.9356;
78273815990175;25.5712;4.5384;21.7526;
78273825990175;25.6810;4.9288;21.6916;
78273835990175;25.6932;5.3436;21.7160;
78273845990175;25.6566;5.7950;21.7526;
78273855990175;25.7420;6.1976;21.5940;
78273865990175;25.6932;6.6246;21.7526;
78273875990175;25.7664;7.1248;21.7526;
78273885990175;25.6932;7.6250;21.9234;
78273895990175;25.5468;8.0398;22.3260;
78273905990175;25.5834;8.5278;22.4968;
78273915990175;25.6078;9.0646;22.7530;
78273925990175;25.6566;9.5404;23.0946;
78273935990175;25.6200;10.0284;23.5826;
78273945990175;25.7176;10.4188;23.7900;
78273955990175;25.8396;10.7970;23.9730;
78273965990175;26.0714;11.1386;24.1926;
78273975990175;26.4984;11.4802;24.0462;
78273985990175;26.6448;11.7242;24.3146;
78273995990175;26.9132;11.8828;24.3756;
78274005990175;27.1938;11.9804;24.4488;
78274015990175;27.3646;12.0536;24.5952;
78274025990175;27.4744;12.0780;24.8880;
78274035990175;27.5842;12.0536;25.1198;
78274045990175;27.7306;11.9804;25.2662;
78274055990175;27.7672;11.8096;25.6566;
78274065990175;27.7794;11.5900;25.9128;
78274075990175;27.7062;11.3704;26.3520;
78274085990175;27.7550;11.1630;26.4984;
78274095990175;27.8892;10.9312;26.5960;
78274105990175;28.1088;10.6628;26.5960;
78274115990175;28.1332;10.3578;26.7668;
78274125990175;28.2308;10.0650;26.7790;
78274135990175;28.2796;9.7844;26.8278;
78274145990175;28.4260;9.5282;26.7546;
78274155990175;28.5480;9.2354;26.6204;
78274165990175;28.5480;8.9182;26.6814;
78274175990175;28.6700;8.6254;26.6326;
78274185990175;28.8164;8.4058;26.5106;
78274195990175;28.8530;8.1862;26.5594;
78274205990175;28.8042;7.9056;26.6570;
78274215990175;28.6334;7.7226;26.8644;
78274225990175;28.4626;7.5030;27.0474;
78274235990175;28.3284;7.3200;27.2060;
78274245990175;28.1332;7.1248;27.4622;
78274255990175;27.9136;6.9174;27.7306;
78274265990175;27.6940;6.7466;28.0478;
78274275990175;27.6208;6.5514;28.0234;
78274285990175;27.5720;6.3928;28.1820;
78274295990175;27.7306;6.1854;27.9868;
78274305990175;27.8160;6.0390;27.9258;
78274315990175;27.8892;5.8682;27.9014;
78274325990175;28.0356;5.7096;27.6696;
78274335990175;28.0478;5.5754;27.6574;
78274345990175;28.0844;5.4168;27.5110;
78274355990175;28.1942;5.3192;27.3890;
78274365990175;28.2552;5.2460;27.2426;
78274375990175;28.3040;5.2216;27.1328;
78274385990175;28.4748;5.1362;26.8888;
78274395990175;28.5724;5.1118;26.8034;
78274405990175;28.5968;5.1118;26.7790;
78274415990175;28.6578;5.0386;26.6448;
78274425990175;28.6456;4.9532;26.6814;
78274435990175;28.4504;4.8678;26.9010;
78274445990175;28.3284;4.7458;27.0108;
78274455990175;28.1698;4.6116;27.1572;
78274465990175;27.9868;4.4652;27.4622;
78274475990175;27.6940;4.3066;27.7062;
78274485990175;27.5476;4.1358;27.9136;
78274495990175;27.5232;4.0748;27.9380;
78274505990175;27.4744;3.9894;27.9258;
78274515990175;27.5964;3.8918;27.8404;
78274525990175;27.7428;3.8186;27.7184;
78274535990175;27.7062;3.7210;27.7184;
78274545990175;27.7184;3.6966;27.6452;
78274555990175;27.8404;3.6600;27.4744;
78274565990175;27.9624;3.6600;27.4012;
78274575990175;27.9624;3.5990;27.4012;
78274585990175;27.8648;3.5380;27.5110;
78274595990175;27.7062;3.5014;27.7306;
78274605990175;27.3768;3.4282;27.9990;
78274615990175;27.3524;3.4038;28.0844;
78274625990175;27.3768;3.3672;28.0966;
78274635990175;27.3402;3.4038;28.1576;
78274645990175;27.1938;3.3428;28.2918;
78274655990175;27.1572;3.3062;28.2796;
78274665990175;27.2792;3.2818;28.1088;
78274675990175;27.4622;3.3062;27.8404;
78274685990175;27.6818;3.3550;27.5964;
78274695990175;27.8160;3.3916;27.4866;
78274705990175;27.7672;3.4282;27.4988;
78274715990175;27.8038;3.4282;27.4134;
78274725990175;28.0234;3.4526;27.1206;
78274735990175;28.0478;3.4892;27.0596;
78274745990175;27.9258;3.5258;27.1694;
78274755990175;27.7428;3.4770;27.3158;
78274765990175;27.7550;3.4648;27.2792;
78274775990175;27.6208;3.4648;27.2792;
78274785990175;27.4744;3.4404;27.4012;
78274795990175;27.3768;3.4038;27.4744;
78274805990175;27.0718;3.3672;27.8160;
78274815990175;26.9742;3.3428;27.9258;
78274825990175;26.9376;3.2696;28.1088;
78274835990175;26.8888;3.2086;28.1576;
78274845990175;26.5716;3.0988;28.5480;
78274855990175;26.4618;2.9524;28.6822;
78274865990175;26.4862;2.8182;28.6334;
78274875990175;26.5106;2.7328;28.6090;
78274885990175;26.5960;2.6840;28.5358;
78274895990175;26.5350;2.5620;28.5602;
78274905990175;26.4374;2.4888;28.5480;
78274915990175;26.4984;2.4888;28.5236;
78274925990175;26.7302;2.5132;28.1942;
78274935990175;26.9132;2.4888;28.0844;
78274945990175;27.0230;2.4644;28.0234;
78274955990175;27.0718;2.4034;27.9868;
78274965990175;27.1084;2.3302;27.8892;
78274975990175;27.2182;2.2692;27.8526;
78274985990175;27.3402;2.1960;27.7306;
78274995990175;27.3402;2.0252;27.6940;
78275005990175;27.4378;1.8788;27.5842;
78275015990175;27.4134;1.7934;27.5842;
78275025990175;27.3402;1.6958;27.6330;
78275035990175;27.2670;1.5982;27.6574;
78275045990175;27.2304;1.4762;27.7184;
78275055990175;27.1206;1.4396;27.9014;
78275065990175;27.0352;1.4152;27.9990;
78275075990175;26.9620;1.3786;28.0356;
78275085990175;26.7912;1.3664;28.2308;
78275095990175;26.7424;1.3176;28.3284;
78275105990175;26.6814;1.2444;28.3406;
78275115990175;26.6448;1.1956;28.3284;
78275125990175;26.6082;1.1712;28.3528;
78275135990175;26.6814;1.0736;28.1942;
78275145990175;26.7668;0.9638;28.0844;
78275155990175;26.8278;0.8906;28.0234;
78275165990175;26.9132;0.8052;27.9014;
78275175990175;26.7180;0.6832;27.9990;
78275185990175;26.7668;0.5978;27.9136;
78275195990175;26.9010;0.4758;27.7794;
78275205990175;26.8766;0.3660;27.7062;
78275215990175;26.7668;0.2806;27.8282;
78275225990175;26.5228;0.1952;27.9624;
78275235990175;26.4496;0.0976;28.0478;
78275245990175;26.4008;0.0366;28.0356;
78275255990175;26.4984;-0.0488;27.8404;
78275265990175;26.4252;-0.0732;27.8892;
78275275990175;26.2788;-0.0854;27.9502;
78275285990175;26.3764;-0.1220;27.8160;
78275295990175;26.6692;-0.1952;27.4988;
78275305990175;26.9376;-0.2806;27.1816;
78275315990175;27.1450;-0.2806;26.8766;
78275325990175;27.2304;-0.3904;26.7912;
78275335990175;27.3402;-0.3904;26.6692;
78275345990175;27.4744;-0.5002;26.5350;
78275355990175;27.5354;-0.5978;26.4008;
78275365990175;27.5720;-0.6954;26.3764;
78275375990175;27.4378;-0.7442;26.3764;
78275385990175;27.4134;-0.7808;26.4008;
78275395990175;27.4012;-0.8174;26.4252;
78275405990175;27.2914;-0.8784;26.4740;
78275415990175;27.2304;-0.9638;26.6082;
78275425990175;27.1694;-1.0004;26.6448;
78275435990175;27.1694;-1.0248;26.7058;
78275445990175;27.0718;-1.0370;26.7546;
78275455990175;27.0352;-1.1102;26.9010;
78275465990175;27.0718;-1.1468;26.9376;
78275475990175;26.9986;-1.2078;27.0962;
78275485990175;27.0718;-1.2322;26.9986;
78275495990175;27.0962;-1.2810;27.0108;
78275505990175;27.1328;-1.3054;26.9742;
78275515990175;27.2182;-1.3664;26.9742;
78275525990175;27.3890;-1.3786;26.9132;
78275535990175;27.4866;-1.3542;26.7180;
78275545990175;27.4500;-1.3420;26.7912;
78275555990175;27.5354;-1.3786;26.6326;
78275565990175;27.6574;-1.3420;26.6204;
78275575990175;27.6452;-1.3298;26.6448;
78275585990175;27.6208;-1.2810;26.6814;
78275595990175;27.5110;-1.2810;26.7790;
78275605990175;27.4134;-1.2566;26.8156;
78275615990175;27.3036;-1.2688;26.9376;
78275625990175;27.2060;-1.3176;27.0108;
78275635990175;27.0962;-1.2688;27.1816;
78275645990175;26.9742;-1.2932;27.2548;
78275655990175;26.9986;-1.2444;27.2548;
78275665990175;26.9742;-1.2810;27.3036;
78275675990175;27.0108;-1.2444;27.3158;
78275685990175;26.9742;-1.2566;27.3890;
78275695990175;27.0108;-1.2200;27.4866;
78275705990175;27.1206;-1.1834;27.4012;
78275715990175;27.2426;-1.1712;27.2304;
78275725990175;27.3890;-1.1346;27.0840;
78275735990175;27.3768;-1.0858;27.0230;
78275745990175;27.2548;-1.0004;27.1694;
78275755990175;27.1328;-0.9028;27.3768;
78275765990175;27.1084;-0.8418;27.4744;
78275775990175;27.0596;-0.7320;27.4378;
78275785990175;26.9864;-0.5978;27.5110;
78275795990175;26.9010;-0.5124;27.6940;
78275805990175;26.7302;-0.4392;27.8648;
78275815990175;26.7668;-0.3782;27.8770;
78275825990175;26.9376;-0.2928;27.7428;
78275835990175;27.0718;-0.2684;27.5720;
78275845990175;27.1450;-0.2196;27.3524;
78275855990175;27.2182;-0.2318;27.2914;
78275865990175;27.2670;-0.2684;27.1084;
78275875990175;27.4744;-0.2928;26.8888;
78275885990175;27.7062;-0.3172;26.6692;
78275895990175;27.8282;-0.3050;26.5106;
78275905990175;27.9014;-0.3660;26.3886;
78275915990175;28.0356;-0.3904;26.2666;
78275925990175;28.1210;-0.4148;26.2910;
78275935990175;28.1576;-0.4026;26.3276;
78275945990175;28.1332;-0.4026;26.5594;
78275955990175;27.9990;-0.4026;26.7546;
78275965990175;27.7672;-0.4270;27.0840;
78275975990175;27.4866;-0.5002;27.4256;
78275985990175;27.2914;-0.5612;27.6452;
78275995990175;27.0474;-0.5734;27.9624;
78276005990175;26.7302;-0.6466;28.3284;
78276015990175;26.5106;-0.7198;28.6334;
78276025990175;26.3154;-0.7930;28.8164;
78276035990175;26.2788;-0.8174;28.8530;
78276045990175;26.3154;-0.8052;28.9140;
78276055990175;26.4374;-0.7930;28.8530;
78276065990175;26.5594;-0.7564;28.7554;
78276075990175;26.7424;-0.7808;28.4748;
78276085990175;27.0108;-0.6954;28.2064;
78276095990175;27.2182;-0.6710;27.9502;
78276105990175;27.7306;-0.5856;27.3036;
78276115990175;27.9014;-0.5368;27.1450;
78276125990175;27.8404;-0.5124;27.0840;
78276135990175;27.7428;-0.5124;27.2670;
78276145990175;27.7550;-0.5368;27.4012;
78276155990175;27.7306;-0.5490;27.5232;
78276165990175;27.7550;-0.5978;27.5598;
78276175990175;27.7916;-0.5734;27.6086;
78276185990175;27.5354;-0.5978;28.0356;
78276195990175;27.4744;-0.6344;28.1942;
78276205990175;27.6452;-0.6466;28.0844;
78276215990175;27.8282;-0.5734;27.8892;
78276225990175;27.9136;-0.4880;27.7062;
78276235990175;27.9746;-0.4270;27.6574;
78276245990175;27.9990;-0.3660;27.5720;
78276255990175;27.8404;-0.3294;27.6696;
78276265990175;27.8648;-0.2318;27.6208;
78276275990175;27.8404;-0.1464;27.6818;
78276285990175;27.6940;-0.1098;27.8160;
78276295990175;27.5842;-0.0854;27.9014;
78276305990175;27.3524;-0.0732;28.1454;
78276315990175;27.2548;-0.0610;28.2308;
78276325990175;27.1816;-0.0732;28.3528;
78276335990175;27.2914;-0.0854;28.3040;
78276345990175;27.2670;-0.1464;28.3894;
78276355990175;27.3158;-0.2074;28.2674;
78276365990175;27.3646;-0.2074;28.1820;
78276375990175;27.4866;-0.2684;28.0234;
78276385990175;27.6574;-0.3050;27.8404;
78276395990175;27.7184;-0.3172;27.7916;
78276405990175;27.7184;-0.3050;27.7672;
78276415990175;27.8038;-0.2928;27.6940;
78276425990175;27.7550;-0.3416;27.7306;
78276435990175;27.6330;-0.3660;27.8770;
78276445990175;27.7306;-0.4148;27.8038;
78276455990175;27.6940;-0.4148;27.8282;
78276465990175;27.6330;-0.4392;27.9014;
78276475990175;27.5598;-0.5124;27.9746;
78276485990175;27.4744;-0.5856;28.0478;
78276495990175;27.4256;-0.6710;28.0722;
78276505990175;27.4500;-0.6954;28.0478;
78276515990175;27.4622;-0.7564;28.0478;
78276525990175;27.4134;-0.8296;28.0844;
78276535990175;27.4134;-0.9150;28.0356;
78276545990175;27.4744;-1.0004;28.1088;
78276555990175;27.5354;-1.0248;28.0478;
78276565990175;27.6452;-1.0492;27.9136;
78276575990175;27.7184;-1.0614;27.8526;
78276585990175;27.6940;-1.1346;27.8526;
78276595990175;27.6818;-1.2200;27.8038;
78276605990175;27.7184;-1.2566;27.8404;
78276615990175;27.7184;-1.3298;27.8404;
78276625990175;27.7184;-1.3542;27.7550;
78276635990175;27.6940;-1.4030;27.8160;
78276645990175;27.5232;-1.4518;28.0722;
78276655990175;27.3768;-1.4884;28.2552;
78276665990175;27.4866;-1.4884;28.1454;
78276675990175;27.6696;-1.4274;27.9502;
78276685990175;27.7184;-1.4396;27.8770;
78276695990175;27.6696;-1.4274;28.0112;
78276705990175;27.7062;-1.4152;27.9868;
78276715990175;27.7428;-1.4274;27.9136;
78276725990175;27.9136;-1.4762;27.7550;
78276735990175;28.0234;-1.5494;27.5964;
78276745990175;27.9868;-1.5738;27.6940;
78276755990175;27.8526;-1.5982;27.9746;
78276765990175;27.7550;-1.5982;28.1942;
78276775990175;27.8160;-1.5860;28.1576;
78276785990175;27.8160;-1.6226;28.2186;
78276795990175;27.8038;-1.6226;28.3406;
78276805990175;27.8160;-1.6104;28.3528;
78276815990175;27.8038;-1.5982;28.3894;
78276825990175;27.8282;-1.6104;28.4016;
78276835990175;27.8160;-1.6348;28.3406;
78276845990175;27.7916;-1.6958;28.2552;
78276855990175;27.7916;-1.7446;28.1942;
78276865990175;27.7916;-1.7690;28.1332;
78276875990175;27.7916;-1.8666;28.0600;
78276885990175;27.7428;-1.9154;28.0966;
78276895990175;27.7550;-1.9520;28.1332;
78276905990175;27.7550;-2.0008;28.1332;
78276915990175;27.8038;-2.0374;28.0478;
78276925990175;27.8282;-2.0374;28.0722;
78276935990175;27.8282;-2.0740;28.1332;
78276945990175;27.7306;-2.1106;28.2430;
78276955990175;27.7550;-2.1228;28.3162;
78276965990175;27.7794;-2.1472;28.3040;
78276975990175;27.6818;-2.1960;28.3528;
78276985990175;27.5964;-2.2570;28.3284;
78276995990175;27.5720;-2.3058;28.4260;
78277005990175;27.5476;-2.3546;28.4382;
78277015990175;27.5232;-2.4278;28.4870;
78277025990175;27.6086;-2.4644;28.3894;
78277035990175;27.5842;-2.4522;28.3406;
78277045990175;27.5476;-2.4644;28.3284;
78277055990175;27.5598;-2.5010;28.3406;
78277065990175;27.5110;-2.5010;28.4260;
78277075990175;27.4622;-2.5376;28.4870;
78277085990175;27.3280;-2.5742;28.6212;
78277095990175;27.2426;-2.5376;28.7066;
78277105990175;27.1938;-2.5254;28.8164;
78277115990175;27.1328;-2.4888;28.8896;
78277125990175;27.1816;-2.4644;28.8652;
78277135990175;27.2060;-2.3790;28.8164;
78277145990175;27.2914;-2.2570;28.7432;
78277155990175;27.4134;-2.0984;28.5602;
78277165990175;27.5232;-1.9154;28.4748;
78277175990175;27.5232;-1.7934;28.4870;
78277185990175;27.4622;-1.6592;28.5724;
78277195990175;27.3402;-1.5738;28.7310;
78277205990175;27.1084;-1.4518;28.9872;
78277215990175;26.9742;-1.2688;29.1702;
78277225990175;26.8156;-1.1468;29.4508;
78277235990175;26.6082;-1.0370;29.7436;
78277245990175;26.7424;-0.9638;29.5850;
78277255990175;26.8644;-0.8052;29.4264;
78277265990175;26.9742;-0.6466;29.2678;
78277275990175;27.2182;-0.5246;29.0238;
78277285990175;27.4622;-0.3904;28.7676;
78277295990175;27.5964;-0.2928;28.6212;
78277305990175;27.6818;-0.1952;28.5236;
78277315990175;27.8038;-0.0244;28.3650;
78277325990175;27.7550;0.1342;28.4016;
78277335990175;27.7184;0.2196;28.4504;
78277345990175;27.7306;0.3416;28.4260;
78277355990175;27.6330;0.5002;28.5236;
78277365990175;27.5842;0.6344;28.5114;
78277375990175;27.5110;0.7686;28.5724;
78277385990175;27.5476;0.8906;28.4992;
78277395990175;27.4988;0.9760;28.6334;
78277405990175;27.4256;1.0248;28.7554;
78277415990175;27.5232;1.0736;28.6456;
78277425990175;27.5720;1.0492;28.6212;
78277435990175;27.6574;1.0004;28.4626;
78277445990175;27.7672;1.0248;28.4138;
78277455990175;27.9380;0.9760;28.2430;
78277465990175;28.0600;0.8906;28.0478;
78277475990175;28.1942;0.7930;27.8770;
78277485990175;28.2918;0.6832;27.8160;
78277495990175;28.1332;0.6222;28.0234;
78277505990175;27.9990;0.5612;28.1454;
78277515990175;27.7428;0.4880;28.4748;
78277525990175;27.4500;0.4148;28.7676;
78277535990175;27.2426;0.3050;28.9994;
78277545990175;27.0840;0.2196;29.1458;
78277555990175;26.9498;0.1342;29.2312;
78277565990175;26.8400;0.0610;29.2922;
78277575990175;26.8522;0.0000;29.3044;
78277585990175;26.8400;-0.0610;29.3654;
78277595990175;26.9742;-0.1220;29.1702;
78277605990175;27.0596;-0.2562;29.0238;
78277615990175;27.0962;-0.3172;28.9140;
78277625990175;27.1572;-0.3904;28.9140;
78277635990175;27.2792;-0.4758;28.7920;
78277645990175;27.2792;-0.5124;28.7676;
78277655990175;27.3036;-0.5978;28.7310;
78277665990175;27.3890;-0.6222;28.6090;
78277675990175;27.4256;-0.5734;28.5602;
78277685990175;27.5354;-0.5368;28.4748;
78277695990175;27.5720;-0.4880;28.4504;
78277705990175;27.4500;-0.3904;28.5358;
78277715990175;27.2670;-0.3172;28.7432;
78277725990175;27.1084;-0.2196;28.9628;
78277735990175;26.9132;-0.1464;29.1580;
78277745990175;26.7302;-0.0488;29.3288;
78277755990175;26.6570;-0.0000;29.4508;
78277765990175;26.4862;0.0976;29.6216;
78277775990175;26.5106;0.1830;29.5972;
78277785990175;26.6570;0.2318;29.4020;
78277795990175;26.8034;0.3538;29.2312;
78277805990175;26.9986;0.4392;28.9506;
78277815990175;27.2426;0.5246;28.6090;
78277825990175;27.4134;0.5124;28.4016;
78277835990175;27.4500;0.4880;28.2552;
78277845990175;27.5476;0.5002;28.1698;
78277855990175;27.4256;0.4514;28.2552;
78277865990175;27.2548;0.4270;28.4382;
78277875990175;27.2182;0.3538;28.5602;
78277885990175;27.1572;0.2806;28.6700;
78277895990175;27.1084;0.2562;28.7920;
78277905990175;27.1694;0.2440;28.7798;
78277915990175;27.2548;0.2074;28.7188;
78277925990175;27.2670;0.1586;28.6578;
78277935990175;27.4134;0.1464;28.5114;
78277945990175;27.5232;0.1220;28.4748;
78277955990175;27.6086;0.0854;28.3406;
78277965990175;27.6818;0.0122;28.2186;
78277975990175;27.6940;-0.1098;28.1820;
78277985990175;27.5720;-0.1952;28.3284;
78277995990175;27.4744;-0.2562;28.4870;
78278005990175;27.4012;-0.3294;28.5602;
78278015990175;27.3402;-0.4270;28.5846;
78278025990175;27.4256;-0.5368;28.4870;
78278035990175;27.3768;-0.6344;28.4382;
78278045990175;27.4378;-0.7076;28.4138;
78278055990175;27.4744;-0.7320;28.3406;
78278065990175;27.6818;-0.7564;28.0844;
78278075990175;27.8282;-0.8174;27.9258;
78278085990175;27.9868;-0.8662;27.7916;
78278095990175;28.0722;-0.9150;27.7550;
78278105990175;28.0966;-0.9638;27.7062;
78278115990175;28.1698;-0.9516;27.6818;
78278125990175;28.2308;-0.9638;27.6818;
78278135990175;28.3406;-0.9638;27.5232;
78278145990175;28.3040;-0.9760;27.5842;
78278155990175;28.2064;-0.9272;27.6696;
78278165990175;28.0722;-0.9272;27.8404;
78278175990175;27.9624;-0.8662;27.9746;
78278185990175;27.8770;-0.8052;28.1820;
78278195990175;27.7306;-0.7930;28.4016;
78278205990175;27.4866;-0.7320;28.5480;
78278215990175;27.2670;-0.7198;28.8164;
78278225990175;27.1816;-0.6466;28.8774;
78278235990175;27.1694;-0.6222;28.8164;
78278245990175;27.2182;-0.5246;28.7066;
78278255990175;27.2426;-0.4758;28.6456;
78278265990175;27.3158;-0.3782;28.5114;
78278275990175;27.5476;-0.2440;28.2308;
78278285990175;27.7916;-0.1220;27.9746;
78278295990175;28.0112;0.0000;27.7550;
78278305990175;28.2552;0.1342;27.5354;
78278315990175;28.3528;0.2318;27.4500;
78278325990175;28.4992;0.2928;27.3524;
78278335990175;28.6700;0.4148;27.0962;
78278345990175;28.7798;0.4880;27.0230;
78278355990175;28.5968;0.5246;27.2304;
78278365990175;28.4382;0.5978;27.4134;
78278375990175;28.2552;0.6710;27.6330;
78278385990175;28.0478;0.6710;27.8526;
78278395990175;27.8526;0.7564;28.0966;
78278405990175;27.6940;0.8296;28.2796;
78278415990175;27.4256;0.8662;28.6700;
78278425990175;27.4256;0.9760;28.6090;
78278435990175;27.5842;1.0370;28.3894;
78278445990175;27.6086;1.0614;28.3528;
78278455990175;27.6696;1.0980;28.2796;
78278465990175;27.5110;1.1590;28.4260;
78278475990175;27.5720;1.2078;28.3162;
78278485990175;27.6330;1.2444;28.2186;
78278495990175;27.8526;1.2444;27.9868;
78278505990175;27.8282;1.2444;28.0478;
78278515990175;27.7550;1.2444;28.1576;
78278525990175;27.8160;1.2322;28.1088;
78278535990175;27.8282;1.2688;28.0478;
78278545990175;27.9258;1.2566;27.9868;
78278555990175;27.9380;1.2078;27.9746;
78278565990175;27.9502;1.1956;28.0112;
78278575990175;27.9990;1.2322;27.9258;
78278585990175;27.9258;1.2078;27.9990;
78278595990175;27.8282;1.2322;28.1332;
78278605990175;27.7184;1.2444;28.1942;
78278615990175;27.7184;1.2200;28.2064;
78278625990175;27.8160;1.2688;28.0600;
78278635990175;27.8892;1.3298;27.9624;
78278645990175;27.9136;1.3420;27.8404;
78278655990175;27.6818;1.3054;28.0722;
78278665990175;27.6452;1.3054;28.0600;
78278675990175;27.6940;1.3176;27.9624;
78278685990175;27.7550;1.3420;27.9990;
78278695990175;27.7550;1.3786;28.0356;
78278705990175;27.6574;1.3298;28.1576;
78278715990175;27.5720;1.3298;28.2796;
78278725990175;27.3890;1.3054;28.5114;
78278735990175;27.3280;1.3054;28.4870;
78278745990175;27.1938;1.2688;28.6334;
78278755990175;27.1572;1.2200;28.6700;
78278765990175;27.1694;1.2200;28.6212;
78278775990175;27.2792;1.2322;28.4870;
78278785990175;27.3646;1.2444;28.4382;
78278795990175;27.4256;1.2078;28.3284;
78278805990175;27.4988;1.2444;28.2430;
78278815990175;27.6452;1.2078;28.1942;
78278825990175;27.6696;1.1834;28.1576;
78278835990175;27.5598;1.1956;28.2552;
78278845990175;27.4378;1.1590;28.3894;
78278855990175;27.2060;1.0736;28.5236;
78278865990175;27.0352;1.0492;28.6212;
78278875990175;26.9010;1.0492;28.8042;
78278885990175;26.8278;0.9882;28.8774;
78278895990175;26.7546;0.9882;29.0116;
78278905990175;26.8400;1.0126;28.9628;
78278915990175;26.9132;0.9882;28.9872;
78278925990175;27.0474;0.9760;28.8408;
78278935990175;27.1572;0.9882;28.7920;
78278945990175;27.2792;0.9638;28.7310;
78278955990175;27.3280;0.9150;28.6212;
78278965990175;27.5110;0.9516;28.4260;
78278975990175;27.6086;0.9882;28.2430;
78278985990175;27.7062;1.0004;28.1210;
78278995990175;27.8526;0.9760;27.8892;
78279005990175;27.8892;1.0126;27.8770;
78279015990175;27.8770;1.0614;27.9380;
78279025990175;27.9258;1.0736;27.8282;
78279035990175;28.0722;1.0736;27.6940;
78279045990175;28.1576;1.0614;27.6452;
78279055990175;28.2796;1.0736;27.5598;
78279065990175;28.3284;1.0370;27.6208;
78279075990175;28.3284;1.0614;27.6696;
78279085990175;28.3772;1.0248;27.4744;
78279095990175;28.5358;0.9760;27.3524;
78279105990175;28.5480;0.9638;27.4500;
78279115990175;28.4992;1.0004;27.5110;
78279125990175;28.3894;0.9394;27.6452;
78279135990175;28.2064;0.9272;27.8892;
78279145990175;28.0478;0.9272;27.9868;
78279155990175;27.8648;0.8906;28.1332;
78279165990175;27.7794;0.8540;28.3528;
78279175990175;27.5720;0.8418;28.6090;
78279185990175;27.3646;0.8052;28.7066;
78279195990175;27.3768;0.7320;28.6944;
78279205990175;27.3890;0.7320;28.7432;
78279215990175;27.3890;0.6588;28.5968;
78279225990175;27.3158;0.5856;28.7310;
78279235990175;27.2914;0.5368;28.7432;
78279245990175;27.3890;0.5246;28.6334;
78279255990175;27.5354;0.5124;28.4626;
78279265990175;27.6208;0.5490;28.4504;
78279275990175;27.4622;0.5490;28.7554;
78279285990175;27.3280;0.5124;28.9140;
78279295990175;27.3646;0.5368;28.9628;
78279305990175;27.4988;0.6100;28.8042;
78279315990175;27.5354;0.5734;28.8408;
78279325990175;27.4256;0.5490;28.9994;
78279335990175;27.4134;0.4636;29.0848;
78279345990175;27.5232;0.3782;28.9384;
78279355990175;27.6940;0.3416;28.6090;
78279365990175;27.9502;0.3172;28.3162;
78279375990175;28.0966;0.2318;28.1942;
78279385990175;28.3162;0.1464;27.9624;
78279395990175;28.5602;0.1342;27.6330;
78279405990175;28.7554;0.1098;27.4378;
78279415990175;28.9750;0.0976;27.0352;
78279425990175;29.1214;0.0732;26.8400;
78279435990175;29.2068;0.0488;26.7424;
78279445990175;29.1946;0.0122;26.6936;
78279455990175;29.1336;-0.0122;26.6814;
78279465990175;28.9872;-0.0488;26.8644;
78279475990175;28.7188;-0.1098;27.2670;
78279485990175;28.4992;-0.1586;27.4256;
78279495990175;28.3040;-0.1586;27.7550;
78279505990175;28.0844;-0.2074;27.9746;
78279515990175;28.0112;-0.2684;28.0234;
78279525990175;27.9136;-0.3050;28.2430;
78279535990175;27.7672;-0.3294;28.4260;
78279545990175;27.6818;-0.3660;28.4992;
78279555990175;27.8404;-0.3538;28.2796;
78279565990175;27.8282;-0.3782;28.3284;
78279575990175;27.7062;-0.4636;28.4260;
78279585990175;27.7794;-0.5002;28.4138;
78279595990175;27.7916;-0.5246;28.4626;
78279605990175;27.8282;-0.5612;28.2918;
78279615990175;27.9014;-0.6100;28.1454;
78279625990175;28.0966;-0.6100;27.9868;
78279635990175;28.1698;-0.7442;27.8526;
78279645990175;28.2308;-0.7808;27.7306;
78279655990175;28.3528;-0.8174;27.5598;
78279665990175;28.4138;-0.8540;27.5232;
78279675990175;28.4138;-0.9150;27.5110;
78279685990175;28.3772;-0.9760;27.5110;
78279695990175;28.3772;-1.0248;27.6086;
78279705990175;28.2186;-1.0370;27.6452;
78279715990175;28.1332;-1.0370;27.7550;
78279725990175;28.0844;-1.0614;27.8160;
78279735990175;28.0722;-1.1102;27.8404;
78279745990175;27.9746;-1.1834;27.8892;
78279755990175;27.9746;-1.1956;27.8892;
78279765990175;27.9746;-1.1956;27.9258;
78279775990175;28.0478;-1.2810;27.8404;
78279785990175;28.1820;-1.3420;27.7306;
78279795990175;28.3894;-1.3664;27.5842;
78279805990175;28.5968;-1.4274;27.3402;
78279815990175;28.7798;-1.4884;27.1084;
78279825990175;28.9262;-1.4884;26.9132;
78279835990175;29.0238;-1.4884;26.8156;
78279845990175;29.0726;-1.5372;26.6692;
78279855990175;29.0238;-1.5494;26.6448;
78279865990175;28.9994;-1.5616;26.6082;
78279875990175;28.9384;-1.5738;26.5960;
78279885990175;28.8652;-1.5616;26.6814;
78279895990175;28.7432;-1.5494;26.8278;
78279905990175;28.7554;-1.5494;26.8400;
78279915990175;28.7066;-1.6104;26.8278;
78279925990175;28.7066;-1.6348;26.9376;
78279935990175;28.7066;-1.5982;26.9864;
78279945990175;28.7066;-1.6470;27.0474;
78279955990175;28.6456;-1.7080;27.1084;
78279965990175;28.6334;-1.7202;27.1084;
78279975990175;28.6456;-1.7568;27.0962;
78279985990175;28.5358;-1.7812;27.1694;
78279995990175;28.6090;-1.8056;27.1084;
78280005990175;28.6822;-1.8422;26.9620;
78280015990175;28.7310;-1.9154;26.8400;
78280025990175;28.7676;-1.9032;26.7790;
78280035990175;28.8530;-1.8666;26.6692;
78280045990175;28.9018;-1.8910;26.6082;
78280055990175;28.9506;-1.8544;26.5716;
78280065990175;29.0360;-1.8422;26.4862;
78280075990175;28.9628;-1.8300;26.5838;
78280085990175;28.8408;-1.7690;26.7912;
78280095990175;28.8164;-1.6958;26.8522;
78280105990175;28.7432;-1.6714;26.9986;
78280115990175;28.7066;-1.5982;27.0840;
78280125990175;28.6090;-1.5128;27.2060;
78280135990175;28.4870;-1.4884;27.3646;
78280145990175;28.3650;-1.4396;27.5110;
78280155990175;28.2796;-1.3420;27.6330;
78280165990175;28.1942;-1.3054;27.7306;
78280175990175;28.2186;-1.2688;27.7550;
78280185990175;28.1332;-1.2688;27.8038;
78280195990175;27.9990;-1.3176;27.8892;
78280205990175;27.9136;-1.3298;28.0478;
78280215990175;27.9136;-1.3298;28.0112;
78280225990175;28.0600;-1.3786;27.8648;
78280235990175;28.1210;-1.4640;27.7672;
78280245990175;28.2918;-1.5006;27.5354;
78280255990175;28.2918;-1.5738;27.5720;
78280265990175;28.3528;-1.6226;27.5476;
78280275990175;28.4138;-1.7080;27.6452;
78280285990175;28.5236;-1.8178;27.4744;
78280295990175;28.5846;-1.9032;27.4866;
78280305990175;28.4626;-1.9642;27.6574;
78280315990175;28.4626;-1.9764;27.7062;
78280325990175;28.4626;-2.0130;27.7062;
78280335990175;28.4626;-2.0984;27.6086;
78280345990175;28.4870;-2.1472;27.5354;
78280355990175;28.4992;-2.1472;27.4134;
78280365990175;28.3284;-2.1472;27.5842;
78280375990175;28.3528;-2.1594;27.5354;
78280385990175;28.3894;-2.1228;27.4622;
78280395990175;28.3528;-2.1472;27.4500;
78280405990175;28.2308;-2.1472;27.5842;
78280415990175;28.1332;-2.0740;27.7672;
78280425990175;28.0356;-2.0252;27.7916;
78280435990175;27.9624;-1.9642;27.7672;
78280445990175;28.0600;-1.9032;27.6940;
78280455990175;28.0234;-1.8422;27.6574;
78280465990175;27.9624;-1.8178;27.7550;
78280475990175;27.9258;-1.6958;27.8770;
78280485990175;27.9136;-1.6470;27.9014;
78280495990175;27.9868;-1.5860;27.6940;
78280505990175;28.0356;-1.5006;27.7672;
78280515990175;28.0722;-1.5006;27.7672;
78280525990175;28.0356;-1.4762;27.8160;
78280535990175;28.0112;-1.4640;27.9136;
78280545990175;28.0112;-1.4518;27.9258;
78280555990175;27.9990;-1.4884;27.8404;
78280565990175;28.0112;-1.5128;27.8038;
78280575990175;27.9990;-1.5250;27.9746;
78280585990175;27.9624;-1.5372;27.9624;
78280595990175;27.9136;-1.5494;28.0722;
78280605990175;27.9380;-1.5494;28.0234;
78280615990175;27.9014;-1.6104;28.0112;
78280625990175;27.9502;-1.6470;27.9014;
78280635990175;27.9502;-1.6836;27.9258;
78280645990175;27.9258;-1.6836;28.0234;
78280655990175;27.9990;-1.7202;27.9380;
78280665990175;28.0722;-1.8178;27.8648;
78280675990175;28.0600;-1.8666;27.8526;
78280685990175;28.0356;-1.9276;27.8526;
78280695990175;28.0600;-1.9642;27.8160;
78280705990175;28.0600;-2.0374;27.8892;
78280715990175;28.1088;-2.0862;27.8160;
78280725990175;28.1332;-2.1594;27.7428;
78280735990175;28.0112;-2.2448;27.8770;
78280745990175;28.0234;-2.2570;27.8770;
78280755990175;28.1088;-2.2814;27.7062;
78280765990175;28.2674;-2.3058;27.5476;
78280775990175;28.3650;-2.2814;27.4744;
78280785990175;28.3650;-2.2814;27.3646;
78280795990175;28.3528;-2.2448;27.3768;
78280805990175;28.3528;-2.1960;27.4134;
78280815990175;28.1942;-2.2204;27.4866;
78280825990175;27.9746;-2.2326;27.7184;
78280835990175;27.8038;-2.2204;27.9502;
78280845990175;27.7306;-2.2082;27.8892;
78280855990175;27.6330;-2.2326;27.9380;
78280865990175;27.7794;-2.2326;27.7794;
78280875990175;27.8892;-2.2448;27.6208;
78280885990175;28.0478;-2.2692;27.2914;
78280895990175;28.3162;-2.1960;27.0108;
78280905990175;28.6334;-2.1472;26.6570;
78280915990175;28.7920;-2.1228;26.4496;
78280925990175;28.8408;-2.1350;26.4862;
78280935990175;28.8896;-2.0862;26.4984;
78280945990175;28.7920;-2.0740;26.6204;
78280955990175;28.7676;-2.0740;26.6936;
78280965990175;28.7432;-2.0862;26.8644;
78280975990175;28.7188;-2.1838;26.9132;
78280985990175;28.7920;-2.2082;26.9132;
78280995990175;28.7798;-2.2204;26.9376;
78281005990175;28.6334;-2.3058;27.1450;
78281015990175;28.4626;-2.3790;27.3036;
78281025990175;28.3406;-2.4278;27.5110;
78281035990175;28.3894;-2.4888;27.5110;
78281045990175;28.3528;-2.5254;27.4988;
78281055990175;28.3772;-2.5742;27.4744;
78281065990175;28.3772;-2.6352;27.3646;
78281075990175;28.6212;-2.6474;27.1328;
78281085990175;28.8164;-2.6596;26.8888;
78281095990175;29.0238;-2.7084;26.6814;
78281105990175;29.1092;-2.6962;26.4374;
78281115990175;29.0482;-2.8060;26.4130;
78281125990175;29.1214;-2.8548;26.3276;
78281135990175;29.0726;-2.8548;26.3032;
78281145990175;28.8652;-2.9036;26.5472;
78281155990175;28.6090;-3.0622;26.7668;
78281165990175;28.4626;-3.1354;26.9498;
78281175990175;28.3040;-3.2330;27.0474;
78281185990175;28.2918;-3.3916;27.1450;
78281195990175;28.1698;-3.4526;27.2914;
78281205990175;28.0234;-3.5746;27.4256;
78281215990175;28.1088;-3.6600;27.4256;
78281225990175;28.1942;-3.7454;27.2792;
78281235990175;28.2308;-3.7942;27.2060;
78281245990175;28.3040;-3.8430;27.1206;
78281255990175;28.4626;-3.8552;26.9742;
78281265990175;28.5114;-3.8674;26.8888;
78281275990175;28.6578;-3.8918;26.7790;
78281285990175;28.7920;-3.9406;26.6814;
78281295990175;28.7310;-4.0016;26.6936;
78281305990175;28.7188;-4.1114;26.7302;
78281315990175;28.7554;-4.1724;26.6936;
78281325990175;28.7188;-4.2578;26.6692;
78281335990175;28.6334;-4.3432;26.8156;
78281345990175;28.5724;-4.4286;26.9010;
78281355990175;28.5114;-4.5506;26.9620;
78281365990175;28.3406;-4.5994;27.1328;
78281375990175;28.4138;-4.6604;27.0962;
78281385990175;28.4870;-4.6848;27.0230;
78281395990175;28.4870;-4.7336;27.0962;
78281405990175;28.4748;-4.7946;27.0840;
78281415990175;28.5114;-4.9166;27.0474;
78281425990175;28.4992;-5.0142;27.0596;
78281435990175;28.4016;-5.0996;27.1816;
78281445990175;28.4870;-5.2338;27.1450;
78281455990175;28.3772;-5.3070;27.3158;
78281465990175;28.3040;-5.4168;27.3890;
78281475990175;28.2064;-5.5266;27.5476;
78281485990175;28.2918;-5.6242;27.5232;
78281495990175;28.2674;-5.6486;27.6940;
78281505990175;28.2308;-5.6974;27.7306;
78281515990175;28.3772;-5.7218;27.6086;
78281525990175;28.3406;-5.7340;27.6208;
78281535990175;28.2430;-5.8194;27.6452;
78281545990175;28.1454;-5.8438;27.7916;
78281555990175;28.1576;-5.8438;27.7794;
78281565990175;28.0722;-5.8316;27.9014;
78281575990175;28.1698;-5.8072;27.7062;
78281585990175;28.1942;-5.7950;27.7062;
78281595990175;28.1698;-5.7950;27.7184;
78281605990175;28.1576;-5.7218;27.6330;
78281615990175;28.2186;-5.6120;27.5232;
78281625990175;28.1698;-5.5388;27.6086;
78281635990175;28.0234;-5.4656;27.6940;
78281645990175;27.8648;-5.3436;27.8038;
78281655990175;27.5720;-5.2582;28.1576;
78281665990175;27.3158;-5.1362;28.3772;
78281675990175;27.4256;-4.9776;28.2186;
78281685990175;27.2304;-4.9044;28.5724;
78281695990175;27.0596;-4.8434;28.8530;
78281705990175;27.0230;-4.7458;28.8652;
78281715990175;27.1572;-4.6116;28.7310;
78281725990175;27.3158;-4.5750;28.6090;
78281735990175;27.4866;-4.5140;28.2674;
78281745990175;27.6696;-4.4774;28.0356;
78281755990175;27.5354;-4.4530;28.1332;
78281765990175;27.6818;-4.4408;27.8892;
78281775990175;27.8770;-4.4042;27.6086;
78281785990175;27.9136;-4.4408;27.5720;
78281795990175;27.7916;-4.4652;27.7306;
78281805990175;27.6818;-4.4652;27.8160;
78281815990175;27.5964;-4.4530;27.9746;
78281825990175;27.6574;-4.4408;27.8892;
78281835990175;27.6940;-4.4652;27.8770;
78281845990175;27.6330;-4.4896;27.9014;
78281855990175;27.5110;-4.4652;28.0356;
78281865990175;27.4988;-4.4530;27.9502;
78281875990175;27.5720;-4.5018;27.8648;
78281885990175;27.6574;-4.5140;27.7794;
78281895990175;27.6452;-4.5994;27.7062;
78281905990175;27.7794;-4.6238;27.6208;
78281915990175;27.7672;-4.6360;27.5720;
78281925990175;27.7916;-4.6360;27.5720;
78281935990175;27.9380;-4.7092;27.4378;
78281945990175;28.0112;-4.7458;27.4744;
78281955990175;27.9990;-4.7702;27.4988;
78281965990175;27.9380;-4.8068;27.5598;
78281975990175;27.8892;-4.8434;27.7184;
78281985990175;27.6208;-4.8800;27.9502;
78281995990175;27.5354;-4.9654;28.1088;
78282005990175;27.6940;-5.0264;27.9380;
78282015990175;27.7306;-5.0508;27.8770;
78282025990175;27.8282;-5.0996;27.7916;
78282035990175;27.9380;-5.1606;27.5964;
78282045990175;28.0966;-5.2094;27.3524;
78282055990175;28.3406;-5.1972;26.9986;
78282065990175;28.5846;-5.2094;26.7668;
78282075990175;28.6944;-5.1972;26.6204;
78282085990175;28.6212;-5.2094;26.7424;
78282095990175;28.5358;-5.2460;26.8400;
78282105990175;28.3528;-5.2216;26.9498;
78282115990175;28.1698;-5.2582;27.1694;
78282125990175;27.9746;-5.2582;27.4744;
78282135990175;27.7672;-5.2826;27.7062;
78282145990175;27.5110;-5.3192;27.9746;
78282155990175;27.2548;-5.3558;28.2186;
78282165990175;27.1206;-5.3558;28.3894;
78282175990175;26.9986;-5.3924;28.5724;
78282185990175;26.9254;-5.4290;28.5968;
78282195990175;26.8766;-5.3802;28.6578;
78282205990175;26.8034;-5.3802;28.6700;
78282215990175;26.7058;-5.3314;28.7920;
78282225990175;26.7058;-5.3192;28.8164;
78282235990175;26.6692;-5.3314;28.8774;
78282245990175;26.7302;-5.2948;28.7920;
78282255990175;26.7424;-5.2460;28.7798;
78282265990175;26.7668;-5.1728;28.7554;
78282275990175;26.8888;-5.1240;28.6456;
78282285990175;27.1694;-5.0630;28.3650;
78282295990175;27.2548;-5.0386;28.3650;
78282305990175;27.3768;-4.9532;28.2430;
78282315990175;27.5598;-4.8190;28.0844;
78282325990175;27.6208;-4.8068;27.9502;
78282335990175;27.7794;-4.7580;27.7062;
78282345990175;27.8282;-4.7702;27.7794;
78282355990175;27.6696;-4.7458;27.9258;
78282365990175;27.3280;-4.7824;28.3162;
78282375990175;27.2914;-4.7580;28.3040;
78282385990175;27.1694;-4.7458;28.3894;
78282395990175;27.1938;-4.7458;28.4138;
78282405990175;27.0230;-4.7092;28.6578;
78282415990175;26.8766;-4.6848;28.8774;
78282425990175;26.8522;-4.6116;28.8286;
78282435990175;26.9498;-4.5872;28.7432;
78282445990175;26.9864;-4.5506;28.7066;
78282455990175;27.0718;-4.5384;28.6212;
78282465990175;27.0230;-4.4896;28.6456;
78282475990175;26.8156;-4.4774;28.8042;
78282485990175;26.7546;-4.4896;28.8652;
78282495990175;26.7058;-4.4774;28.8774;
78282505990175;26.5472;-4.4774;29.1336;
78282515990175;26.4008;-4.5262;29.2678;
78282525990175;26.5106;-4.5506;29.0604;
78282535990175;26.4496;-4.6238;29.0970;
78282545990175;26.5228;-4.7580;29.0238;
78282555990175;26.7668;-4.8678;28.7676;
78282565990175;27.0230;-4.9288;28.4748;
78282575990175;27.1938;-5.0508;28.2918;
78282585990175;27.4988;-5.1606;27.8770;
78282595990175;28.0722;-5.2704;27.1572;
78282605990175;28.0234;-5.3924;27.2182;
78282615990175;27.9624;-5.5266;27.2304;
78282625990175;27.8526;-5.6364;27.2670;
78282635990175;27.7184;-5.7950;27.4256;
78282645990175;27.5720;-5.9292;27.5354;
78282655990175;27.4500;-5.9902;27.6940;
78282665990175;27.2548;-6.1122;27.9258;
78282675990175;26.8766;-6.1732;28.4382;
78282685990175;27.0596;-6.2098;28.2308;
78282695990175;27.2548;-6.1854;28.0478;
78282705990175;27.4500;-6.1854;27.9258;
78282715990175;27.5476;-6.1610;27.7672;
78282725990175;27.6818;-6.1976;27.6330;
78282735990175;27.7794;-6.1854;27.4866;
78282745990175;28.0234;-6.1976;27.1816;
78282755990175;28.3040;-6.2098;26.8766;
78282765990175;28.2308;-6.2464;27.0108;
78282775990175;28.0722;-6.3196;27.1694;
78282785990175;27.9380;-6.3318;27.2426;
78282795990175;27.9136;-6.3074;27.3036;
78282805990175;27.9258;-6.3074;27.2548;
78282815990175;27.9136;-6.3684;27.2670;
78282825990175;27.8404;-6.3806;27.3768;
78282835990175;27.6452;-6.3684;27.4622;
78282845990175;27.5598;-6.3806;27.4988;
78282855990175;27.6940;-6.3562;27.4134;
78282865990175;27.6940;-6.3440;27.4134;
78282875990175;27.5598;-6.3806;27.5842;
78282885990175;27.3524;-6.3928;27.8404;
78282895990175;27.2670;-6.3684;28.0112;
78282905990175;27.1450;-6.3684;28.1332;
78282915990175;27.0596;-6.3806;28.3650;
78282925990175;27.1450;-6.3318;28.3894;
78282935990175;27.1572;-6.2708;28.3894;
78282945990175;27.1816;-6.2708;28.4382;
78282955990175;27.3524;-6.2464;28.2186;
78282965990175;27.4622;-6.1976;28.1576;
78282975990175;27.4866;-6.1854;28.0478;
78282985990175;27.4988;-6.1610;28.0844;
78282995990175;27.5232;-6.1610;28.0844;
78283005990175;27.4378;-6.1976;28.1576;
78283015990175;27.3646;-6.2464;28.2186;
78283025990175;27.3768;-6.2342;28.2674;
78283035990175;27.3402;-6.2098;28.3162;
78283045990175;27.3036;-6.1732;28.4382;
78283055990175;27.3036;-6.1488;28.4382;
78283065990175;27.2914;-6.1610;28.4382;
78283075990175;27.3402;-6.1488;28.3528;
78283085990175;27.4500;-6.1732;28.1210;
78283095990175;27.6452;-6.1366;27.9380;
78283105990175;27.8526;-6.1122;27.6330;
78283115990175;27.9136;-6.1854;27.4744;
78283125990175;28.0844;-6.2098;27.2060;
78283135990175;28.2430;-6.1976;26.9986;
78283145990175;28.4626;-6.1610;26.8034;
78283155990175;28.5846;-6.1366;26.6326;
78283165990175;28.6456;-6.1244;26.6326;
78283175990175;28.6212;-6.1732;26.6936;
78283185990175;28.5724;-6.1976;26.8278;
78283195990175;28.5236;-6.1610;27.0352;
78283205990175;28.4016;-6.1610;27.1694;
78283215990175;28.1942;-6.1732;27.4134;
78283225990175;27.9990;-6.2220;27.5964;
78283235990175;27.8770;-6.2464;27.7428;
78283245990175;27.8648;-6.2098;27.7794;
78283255990175;27.9014;-6.1854;27.6940;
78283265990175;27.9990;-6.1610;27.4866;
78283275990175;28.1332;-6.0878;27.2792;
78283285990175;28.2674;-6.0878;27.1572;
78283295990175;28.4992;-6.0268;26.8766;
78283305990175;28.6944;-5.9414;26.6570;
78283315990175;28.7554;-5.8682;26.5716;
78283325990175;28.7310;-5.7584;26.5960;
78283335990175;28.5968;-5.6608;26.7790;
78283345990175;28.4748;-5.5754;26.8888;
78283355990175;28.4382;-5.4778;26.9376;
78283365990175;28.3528;-5.3680;26.9986;
78283375990175;28.1942;-5.2826;27.2426;
78283385990175;28.1576;-5.2094;27.3158;
78283395990175;28.0356;-5.1362;27.4866;
78283405990175;27.9502;-5.0508;27.6452;
78283415990175;27.8648;-4.9898;27.7184;
78283425990175;27.8770;-4.9166;27.7306;
78283435990175;27.9258;-4.8678;27.5964;
78283445990175;28.0112;-4.7702;27.4622;
78283455990175;28.1576;-4.7092;27.2426;
78283465990175;28.1210;-4.5994;27.2548;
78283475990175;28.2430;-4.5140;27.1816;
78283485990175;28.3894;-4.4530;27.0230;
78283495990175;28.5480;-4.3554;26.8888;
78283505990175;28.5724;-4.2944;26.9254;
78283515990175;28.5114;-4.1724;27.0352;
78283525990175;28.4992;-4.1114;27.1694;
78283535990175;28.4016;-3.9894;27.3524;
78283545990175;28.3284;-3.9528;27.5110;
78283555990175;28.2186;-3.8674;27.5842;
78283565990175;28.1210;-3.7942;27.6574;
78283575990175;28.0112;-3.7576;27.8160;
78283585990175;28.0112;-3.7332;27.7428;
78283595990175;27.9746;-3.7210;27.7916;
78283605990175;27.9746;-3.7454;27.7062;
78283615990175;28.0844;-3.7698;27.5476;
78283625990175;28.1088;-3.7820;27.4622;
78283635990175;28.2064;-3.8430;27.3890;
78283645990175;28.2796;-3.8796;27.3280;
78283655990175;28.2918;-3.9650;27.2914;
78283665990175;28.1088;-3.9528;27.5476;
78283675990175;27.9258;-3.9894;27.7428;
78283685990175;27.7306;-4.0382;28.0356;
78283695990175;27.5232;-4.0748;28.4016;
78283705990175;27.3890;-4.0992;28.5236;
78283715990175;27.3280;-4.1114;28.6212;
78283725990175;27.1694;-4.1114;28.7554;
78283735990175;27.0718;-4.0992;28.8164;
78283745990175;27.0230;-4.1602;28.9628;
78283755990175;27.0596;-4.1846;28.9506;
78283765990175;27.2304;-4.1480;28.7188;
78283775990175;27.3280;-4.1358;28.5358;
78283785990175;27.3890;-4.1236;28.5602;
78283795990175;27.3646;-4.1114;28.6212;
78283805990175;27.4012;-4.0992;28.5846;
78283815990175;27.5232;-4.0626;28.4504;
78283825990175;27.6330;-4.0138;28.2552;
78283835990175;27.5964;-4.0260;28.2186;
78283845990175;27.4988;-4.0138;28.3650;
78283855990175;27.4378;-4.0504;28.3284;
78283865990175;27.6208;-4.0382;28.0600;
78283875990175;27.8282;-3.9894;27.7550;
78283885990175;28.0112;-3.9406;27.4866;
78283895990175;28.1332;-3.9406;27.4012;
78283905990175;28.2430;-3.8918;27.2670;
78283915990175;28.5724;-3.8064;26.9620;
78283925990175;28.8530;-3.7454;26.7180;
78283935990175;29.1092;-3.6722;26.4862;
78283945990175;29.2190;-3.6112;26.4496;
78283955990175;29.0970;-3.5746;26.6204;
78283965990175;29.1214;-3.5258;26.6936;
78283975990175;29.1458;-3.4892;26.7424;
78283985990175;29.1702;-3.4282;26.7058;
78283995990175;29.1214;-3.4038;26.8156;
78284005990175;28.9384;-3.3916;26.9498;
78284015990175;28.8164;-3.3184;27.1084;
78284025990175;28.6578;-3.3062;27.2426;
78284035990175;28.7066;-3.3184;27.1084;
78284045990175;28.6334;-3.2696;27.2060;
78284055990175;28.6700;-3.1842;27.0718;
78284065990175;28.7676;-3.1598;27.0108;
78284075990175;28.7798;-3.1110;26.9498;
78284085990175;28.9628;-3.0256;26.7668;
78284095990175;29.0848;-2.9524;26.7424;
78284105990175;29.2434;-2.8426;26.5960;
78284115990175;29.4264;-2.7328;26.4496;
78284125990175;29.6460;-2.6596;26.2056;
78284135990175;29.7558;-2.5986;26.0470;
78284145990175;29.8046;-2.5010;25.9494;
78284155990175;29.9144;-2.3790;25.8396;
78284165990175;29.9144;-2.2692;25.7786;
78284175990175;29.9754;-2.1838;25.6444;
78284185990175;29.9632;-2.1594;25.5468;
78284195990175;29.9022;-2.0740;25.5346;
78284205990175;29.7924;-2.0008;25.5956;
78284215990175;29.7680;-1.9520;25.6200;
78284225990175;29.7558;-1.9032;25.6078;
78284235990175;29.7070;-1.8910;25.5834;
78284245990175;29.8290;-1.8300;25.4248;
78284255990175;29.8290;-1.7812;25.3882;
78284265990175;29.9266;-1.6470;25.3394;
78284275990175;29.9632;-1.5372;25.4004;
78284285990175;30.0364;-1.3908;25.2906;
78284295990175;30.0486;-1.1956;25.3028;
78284305990175;30.0974;-1.0492;25.2418;
78284315990175;30.1096;-0.9028;25.2540;
78284325990175;30.0852;-0.8540;25.3516;
78284335990175;30.1706;-0.7564;25.2052;
78284345990175;30.2438;-0.6954;25.0588;
78284355990175;30.2926;-0.6344;24.9368;
78284365990175;30.3414;-0.6588;24.8758;
78284375990175;30.3048;-0.7198;24.8880;
78284385990175;30.3780;-0.7686;24.8270;
78284395990175;30.3780;-0.8296;24.7782;
78284405990175;30.3536;-0.8052;24.8026;
78284415990175;30.4024;-0.8784;24.7538;
78284425990175;30.4146;-0.9394;24.8514;
78284435990175;30.4268;-1.0858;24.9002;
78284445990175;30.4634;-1.1712;24.9002;
78284455990175;30.6342;-1.2200;24.8026;
78284465990175;30.6830;-1.2566;24.7904;
78284475990175;30.7806;-1.2932;24.6928;
78284485990175;30.9148;-1.3786;24.6562;
78284495990175;30.7928;-1.4396;24.8392;
78284505990175;30.7196;-1.4884;24.9490;
78284515990175;30.7440;-1.4640;24.9612;
78284525990175;30.6952;-1.4396;25.0710;
78284535990175;30.5000;-1.4884;25.3882;
78284545990175;30.3292;-1.5494;25.6200;
78284555990175;30.2072;-1.5860;25.8762;
78284565990175;30.0242;-1.6104;26.1202;
78284575990175;29.9632;-1.5738;26.2056;
78284585990175;29.8168;-1.5860;26.4862;
78284595990175;29.6826;-1.5982;26.7058;
78284605990175;29.6582;-1.5616;26.7912;
78284615990175;29.6826;-1.5494;26.6814;
78284625990175;29.6582;-1.5494;26.7424;
78284635990175;29.6094;-1.5982;26.8156;
78284645990175;29.6582;-1.5494;26.7790;
78284655990175;29.6338;-1.5128;26.8522;
78284665990175;29.7192;-1.4396;26.7058;
78284675990175;29.6704;-1.3298;26.7424;
78284685990175;29.5728;-1.2932;26.8644;
78284695990175;29.4508;-1.2322;27.0352;
78284705990175;29.4630;-1.0858;27.0108;
78284715990175;29.4752;-0.9394;26.9742;
78284725990175;29.1092;-0.8662;27.3280;
78284735990175;29.0360;-0.7808;27.3158;
78284745990175;28.8652;-0.7076;27.4988;
78284755990175;28.7188;-0.6588;27.6696;
78284765990175;28.5358;-0.5978;27.8038;
78284775990175;28.3284;-0.5246;28.0600;
78284785990175;28.1210;-0.5124;28.3894;
78284795990175;28.0234;-0.4514;28.4626;
78284805990175;28.3040;-0.4758;28.0722;
78284815990175;28.2674;-0.4758;28.0966;
78284825990175;28.3406;-0.4514;27.9258;
78284835990175;28.4504;-0.4880;27.6818;
78284845990175;28.6578;-0.5856;27.4256;
78284855990175;28.8652;-0.6344;27.0596;
78284865990175;28.9262;-0.7442;26.9010;
78284875990175;28.8896;-0.8296;26.9376;
78284885990175;28.8408;-0.8540;26.9620;
78284895990175;28.9018;-0.9272;26.9864;
78284905990175;28.8774;-1.0370;27.0108;
78284915990175;28.8286;-1.1102;27.0962;
78284925990175;28.6700;-1.1834;27.3402;
78284935990175;28.5724;-1.2688;27.5354;
78284945990175;28.6212;-1.3054;27.4866;
78284955990175;28.6334;-1.3786;27.4500;
78284965990175;28.5846;-1.5006;27.5964;
78284975990175;28.4748;-1.6592;27.6940;
78284985990175;28.3040;-1.7568;27.8526;
78284995990175;28.0722;-1.9032;28.1698;
78285005990175;28.2064;-1.9642;27.9746;
78285015990175;28.3528;-2.0496;27.8160;
78285025990175;28.4016;-2.0862;27.7062;
78285035990175;28.4870;-2.1594;27.6574;
78285045990175;28.5114;-2.2082;27.6086;
78285055990175;28.5724;-2.2204;27.4988;
78285065990175;28.7798;-2.2204;27.3036;
78285075990175;29.1092;-2.2448;26.8644;
78285085990175;29.0604;-2.2936;26.8522;
78285095990175;28.9628;-2.3180;26.9620;
78285105990175;28.6822;-2.3790;27.3158;
78285115990175;28.4504;-2.4400;27.5110;
78285125990175;28.4016;-2.4278;27.5476;
78285135990175;28.3894;-2.4034;27.6208;
78285145990175;28.3772;-2.3790;27.6818;
78285155990175;28.2552;-2.3546;27.7062;
78285165990175;28.1698;-2.3302;27.8892;
78285175990175;28.0478;-2.2936;28.0112;
78285185990175;28.2674;-2.2448;27.8038;
78285195990175;28.3528;-2.1350;27.7306;
78285205990175;28.2308;-2.1594;27.9014;
78285215990175;28.0722;-2.1838;27.9990;
78285225990175;27.9258;-2.2204;28.1332;
78285235990175;27.8526;-2.1716;28.2430;
78285245990175;27.9014;-2.1350;28.1576;
78285255990175;27.9136;-2.1350;28.0722;
78285265990175;27.7428;-2.1350;28.3040;
78285275990175;27.6696;-2.1716;28.3650;
78285285990175;27.7794;-2.1472;28.2552;
78285295990175;27.8038;-2.1960;28.2674;
78285305990175;27.9868;-2.2326;28.0600;
78285315990175;28.1332;-2.3180;27.9990;
78285325990175;28.1454;-2.4278;27.9868;
78285335990175;28.1088;-2.5620;28.0722;
78285345990175;28.1332;-2.6962;27.9258;
78285355990175;28.1088;-2.8304;27.9624;
78285365990175;27.9258;-3.0134;28.1576;
78285375990175;28.0112;-3.0988;28.0112;
78285385990175;28.0112;-3.2574;28.0112;
78285395990175;28.0112;-3.4160;27.9624;
78285405990175;28.1210;-3.5746;27.8282;
78285415990175;28.3284;-3.6234;27.5354;
78285425990175;28.4260;-3.7088;27.4134;
78285435990175;28.6334;-3.7576;27.1572;
78285445990175;28.8774;-3.7698;26.8888;
78285455990175;28.8042;-3.8430;26.9498;
78285465990175;28.5236;-3.8430;27.2670;
78285475990175;28.2918;-3.8186;27.5842;
78285485990175;28.0234;-3.7698;27.9014;
78285495990175;27.7916;-3.7332;28.1942;
78285505990175;27.6574;-3.6844;28.3406;
78285515990175;27.4866;-3.6234;28.5480;
78285525990175;27.2182;-3.6112;28.8408;
78285535990175;27.2548;-3.5014;28.9262;
78285545990175;27.2548;-3.4282;28.9750;
78285555990175;27.1938;-3.3672;29.0482;
78285565990175;27.2304;-3.3184;28.9994;
78285575990175;27.3158;-3.2452;28.9140;
78285585990175;27.4134;-3.1598;28.8042;
78285595990175;27.4256;-3.1110;28.7676;
78285605990175;27.5354;-2.9280;28.6822;
78285615990175;27.4134;-2.8304;28.6090;
78285625990175;27.5476;-2.7206;28.4138;
78285635990175;27.8892;-2.5864;27.9624;
78285645990175;27.9380;-2.4766;27.8404;
78285655990175;27.9014;-2.3668;27.9258;
78285665990175;27.8892;-2.2448;27.9746;
78285675990175;27.8770;-2.1106;28.0112;
78285685990175;27.9502;-2.0374;27.9258;
78285695990175;27.9502;-1.9276;28.0600;
78285705990175;27.9868;-1.8544;28.1454;
78285715990175;27.7550;-1.7812;28.4748;
78285725990175;27.7062;-1.7080;28.5968;
78285735990175;27.8648;-1.7202;28.4016;
78285745990175;27.9014;-1.7934;28.3650;
78285755990175;28.0356;-1.8422;28.2308;
78285765990175;28.0966;-1.9276;28.0966;
78285775990175;28.2674;-2.0618;27.9502;
78285785990175;28.2552;-2.1228;27.8404;
78285795990175;28.4016;-2.2570;27.7062;
78285805990175;28.4748;-2.3790;27.6574;
78285815990175;28.4016;-2.4766;27.7550;
78285825990175;28.3406;-2.5620;27.8648;
78285835990175;28.2308;-2.6840;27.9746;
78285845990175;28.0844;-2.8304;28.1332;
78285855990175;28.0722;-2.9402;28.1332;
78285865990175;27.9990;-3.0866;28.1576;
78285875990175;27.8648;-3.1720;28.2186;
78285885990175;27.7550;-3.2940;28.2918;
78285895990175;27.6696;-3.4404;28.3650;
78285905990175;27.5842;-3.5990;28.3284;
78285915990175;27.5598;-3.7088;28.2552;
78285925990175;27.6574;-3.7820;28.0356;
78285935990175;27.4744;-3.8674;28.1088;
78285945990175;27.4012;-4.0504;28.0966;
78285955990175;27.3036;-4.1968;28.0478;
78285965990175;27.2914;-4.2822;27.8526;
78285975990175;27.2182;-4.3432;27.6574;
78285985990175;27.3036;-4.3798;27.4622;
78285995990175;27.3402;-4.4042;27.3524;
78286005990175;27.1938;-4.4408;27.3646;
78286015990175;27.2670;-4.4652;27.2182;
78286025990175;27.3158;-4.4042;27.2182;
78286035990175;27.3402;-4.3554;27.2060;
78286045990175;27.2914;-4.3310;27.2304;
78286055990175;27.3524;-4.2456;27.3036;
78286065990175;27.3646;-4.1602;27.2670;
78286075990175;27.3036;-4.0992;27.3646;
78286085990175;27.2792;-4.0138;27.5476;
78286095990175;27.2304;-3.8796;27.6330;
78286105990175;27.1450;-3.7454;27.7794;
78286115990175;27.1938;-3.5502;27.9136;
78286125990175;27.2548;-3.3306;28.0844;
78286135990175;27.3402;-3.1720;28.2308;
78286145990175;27.3646;-2.9646;28.4748;
78286155990175;27.4744;-2.7572;28.5724;
78286165990175;27.6818;-2.5864;28.4870;
78286175990175;27.8892;-2.4644;28.4870;
78286185990175;28.2430;-2.3302;28.2186;
78286195990175;28.4138;-2.2936;28.0600;
78286205990175;28.5968;-2.2326;27.8892;
78286215990175;28.7432;-2.1838;27.7184;
78286225990175;29.0116;-2.1472;27.3768;
78286235990175;29.3288;-2.1838;26.9132;
78286245990175;29.5728;-2.1838;26.5960;
78286255990175;29.7436;-2.1838;26.2910;
78286265990175;29.8168;-2.1960;26.1324;
78286275990175;30.0120;-2.2082;25.9372;
78286285990175;30.1828;-2.2204;25.7298;
78286295990175;30.2316;-2.2692;25.5956;
78286305990175;30.1096;-2.3302;25.7542;
78286315990175;29.9266;-2.3790;25.9494;
78286325990175;29.7436;-2.4156;26.1690;
78286335990175;29.5118;-2.4522;26.4862;
78286345990175;29.2922;-2.5376;26.8644;
78286355990175;29.0360;-2.6108;27.1938;
78286365990175;28.8896;-2.6596;27.4134;
78286375990175;28.7432;-2.7206;27.6696;
78286385990175;28.6700;-2.7938;27.7306;
78286395990175;28.5602;-2.8426;27.9136;
78286405990175;28.6090;-2.8914;27.9136;
78286415990175;28.6578;-2.9036;27.8892;
78286425990175;28.6456;-2.9524;27.8038;
78286435990175;28.5358;-2.9402;27.8526;
78286445990175;28.3772;-3.0256;28.0112;
78286455990175;28.3650;-2.9768;28.0234;
78286465990175;28.3406;-2.9890;28.0356;
78286475990175;28.3894;-3.0012;28.0234;
78286485990175;28.3650;-2.9646;28.0478;
78286495990175;28.4016;-2.9524;27.9746;
78286505990175;28.4382;-2.9158;28.0722;
78286515990175;28.5724;-2.8914;27.9624;
78286525990175;28.6090;-2.7938;27.9014;
78286535990175;28.5114;-2.8060;27.9258;
78286545990175;28.4626;-2.7450;28.0600;
78286555990175;28.4138;-2.6962;28.1210;
78286565990175;28.3162;-2.6718;28.1576;
78286575990175;28.2796;-2.6840;28.3040;
78286585990175;28.1576;-2.5986;28.3162;
78286595990175;28.1332;-2.5620;28.3772;
78286605990175;28.1454;-2.5132;28.3528;
78286615990175;28.2308;-2.4888;28.3162;
78286625990175;28.2552;-2.4644;28.2186;
78286635990175;28.2796;-2.4888;28.1576;
78286645990175;28.2796;-2.4888;28.1698;
78286655990175;28.2796;-2.4156;28.1210;
78286665990175;28.3772;-2.3668;28.0478;
78286675990175;28.3284;-2.3546;28.0966;
78286685990175;28.1820;-2.3790;28.2064;
78286695990175;28.0356;-2.3546;28.3406;
78286705990175;27.9136;-2.3058;28.5236;
78286715990175;27.8160;-2.2570;28.5846;
78286725990175;27.6940;-2.2204;28.6822;
78286735990175;27.7062;-2.1838;28.6578;
78286745990175;27.6452;-2.1960;28.6700;
78286755990175;27.6208;-2.1594;28.6212;
78286765990175;27.7916;-2.1106;28.4748;
78286775990175;27.8648;-2.0740;28.3650;
78286785990175;28.1332;-2.0130;28.1088;
78286795990175;28.2552;-2.0008;27.9990;
78286805990175;28.4260;-1.9398;27.7794;
78286815990175;28.4626;-1.9398;27.6818;
78286825990175;28.6456;-1.9154;27.3890;
78286835990175;28.7798;-1.8788;27.1450;
78286845990175;28.9506;-1.8788;26.8766;
78286855990175;29.1946;-1.8666;26.4984;
78286865990175;29.1336;-1.9032;26.3520;
78286875990175;29.2190;-1.8788;26.2544;
78286885990175;29.2800;-1.8666;26.1934;
78286895990175;29.3166;-1.8178;26.1202;
78286905990175;29.1946;-1.7446;26.3764;
78286915990175;29.1824;-1.7202;26.5350;
78286925990175;28.9872;-1.6836;26.8034;
78286935990175;29.0238;-1.6104;26.9132;
78286945990175;29.0970;-1.5250;26.9864;
78286955990175;29.1092;-1.4518;26.9742;
78286965990175;29.0848;-1.4030;26.9742;
78286975990175;29.0604;-1.3420;27.0108;
78286985990175;29.1946;-1.2932;26.8400;
78286995990175;29.3044;-1.2200;26.6326;
78287005990175;29.5728;-1.1346;26.3276;
78287015990175;29.5728;-1.1102;26.2422;
78287025990175;29.6338;-1.0858;26.1812;
78287035990175;29.6948;-0.9760;26.0836;
78287045990175;29.7436;-0.9028;26.1080;
78287055990175;29.6948;-0.8662;26.2056;
78287065990175;29.6094;-0.8418;26.3032;
78287075990175;29.5484;-0.7808;26.3764;
78287085990175;29.4142;-0.7320;26.5472;
78287095990175;29.6338;-0.6100;26.3154;
78287105990175;29.6216;-0.5124;26.2788;
78287115990175;29.4508;-0.5002;26.5228;
78287125990175;29.2922;-0.4514;26.6692;
78287135990175;29.4020;-0.3904;26.5594;
78287145990175;29.4142;-0.3294;26.5228;
78287155990175;29.3898;-0.2928;26.5960;
78287165990175;29.4142;-0.2440;26.5106;
78287175990175;28.9872;-0.2318;26.9986;
78287185990175;28.8652;-0.2196;27.0840;
78287195990175;28.9994;-0.1830;27.0718;
78287205990175;29.0848;-0.1830;26.9864;
78287215990175;28.9994;-0.1830;27.0840;
78287225990175;28.9140;-0.1952;27.1572;
78287235990175;28.8652;-0.2196;27.1572;
78287245990175;28.7920;-0.2196;27.2914;
78287255990175;28.7432;-0.2562;27.3158;
78287265990175;28.5846;-0.2196;27.5354;
78287275990175;28.4138;-0.2318;27.6940;
78287285990175;28.3772;-0.2196;27.7672;
78287295990175;28.3040;-0.2440;27.8892;
78287305990175;28.3650;-0.2196;27.8404;
78287315990175;28.3284;-0.2074;27.9258;
78287325990175;28.3406;-0.2074;27.9502;
78287335990175;28.4748;-0.1586;27.8892;
78287345990175;28.6700;-0.1708;27.6574;
78287355990175;28.7188;-0.1464;27.5354;
78287365990175;28.6700;-0.1098;27.5842;
78287375990175;28.6090;-0.0854;27.6330;
78287385990175;28.5602;-0.0732;27.6696;
78287395990175;28.6822;-0.0122;27.4988;
78287405990175;28.6700;-0.0122;27.5110;
78287415990175;28.5968;-0.0244;27.5232;
78287425990175;28.5114;-0.0366;27.6574;
78287435990175;28.5602;-0.0488;27.5598;
78287445990175;28.5602;-0.0732;27.5110;
78287455990175;28.6212;-0.0976;27.4500;
78287465990175;28.5724;-0.0854;27.5842;
78287475990175;28.4626;-0.1342;27.8038;
78287485990175;28.3406;-0.1830;27.9258;
78287495990175;28.3528;-0.2196;27.9746;
78287505990175;28.2796;-0.2318;27.9868;
78287515990175;28.1698;-0.2318;28.1576;
78287525990175;28.2796;-0.2440;28.0112;
78287535990175;28.4626;-0.1952;27.7672;
78287545990175;28.5480;-0.2562;27.6818;
78287555990175;28.7066;-0.2684;27.3768;
78287565990175;28.8652;-0.2684;27.1572;
78287575990175;28.8896;-0.2196;27.0962;
78287585990175;29.0726;-0.1952;26.8644;
78287595990175;29.2800;-0.1952;26.6570;
78287605990175;29.2556;-0.1952;26.6936;
78287615990175;29.1824;-0.2074;26.8034;
78287625990175;29.1580;-0.2318;26.7546;
78287635990175;29.1214;-0.2196;26.8034;
78287645990175;29.0848;-0.2074;26.8156;
78287655990175;29.1580;-0.2318;26.7180;
78287665990175;29.1702;-0.2562;26.7180;
78287675990175;29.1580;-0.2562;26.7790;
78287685990175;28.9750;-0.2684;27.0352;
78287695990175;28.8530;-0.2562;27.1206;
78287705990175;28.9506;-0.1952;27.0596;
78287715990175;28.9628;-0.1464;27.1206;
78287725990175;29.0238;-0.1220;27.1084;
78287735990175;29.0360;-0.1098;27.0962;
78287745990175;28.9872;-0.1098;27.1450;
78287755990175;29.0360;-0.0976;27.0230;
78287765990175;29.2800;-0.1464;26.6936;
78287775990175;29.4996;-0.1586;26.4862;
78287785990175;29.5728;-0.1830;26.3764;
78287795990175;29.5850;-0.2196;26.3398;
78287805990175;29.5728;-0.2074;26.3642;
78287815990175;29.5118;-0.1952;26.4862;
78287825990175;29.3776;-0.2196;26.6936;
78287835990175;29.2678;-0.2074;26.8766;
78287845990175;29.1458;-0.1952;27.0352;
78287855990175;28.9018;-0.2074;27.2914;
78287865990175;28.7188;-0.1952;27.4744;
78287875990175;28.5358;-0.1952;27.6940;
78287885990175;28.4260;-0.2074;27.6818;
78287895990175;28.3894;-0.1708;27.6940;
78287905990175;28.4138;-0.1220;27.6818;
78287915990175;28.4016;-0.0854;27.6696;
78287925990175;28.5114;-0.0244;27.5720;
78287935990175;28.7066;0.0244;27.3890;
78287945990175;28.8652;0.0732;27.3036;
78287955990175;29.0116;0.1586;27.0962;
78287965990175;29.1824;0.2196;27.0718;
78287975990175;29.2068;0.2440;27.0352;
78287985990175;29.2678;0.3050;26.9864;
78287995990175;29.2922;0.3782;26.9254;
78288005990175;29.2190;0.4636;26.8888;
78288015990175;29.1580;0.5246;26.9864;
78288025990175;29.1092;0.6100;26.9376;
78288035990175;28.9872;0.6588;27.0352;
78288045990175;28.8774;0.7442;27.1816;
78288055990175;28.9140;0.7686;27.1816;
78288065990175;28.8774;0.8296;27.2060;
78288075990175;28.7432;0.8418;27.3280;
78288085990175;28.6334;0.8906;27.5354;
78288095990175;28.5724;0.9150;27.6696;
78288105990175;28.4626;0.9150;27.8770;
78288115990175;28.3406;0.9760;28.0844;
78288125990175;28.2674;1.0004;28.1698;
78288135990175;28.0966;1.0614;28.4138;
78288145990175;27.9868;1.0614;28.5114;
78288155990175;27.9258;1.1224;28.6212;
78288165990175;27.9136;1.1468;28.7066;
78288175990175;27.8892;1.1956;28.6334;
78288185990175;27.8282;1.2322;28.6578;
78288195990175;27.9258;1.2200;28.5968;
78288205990175;27.9014;1.2078;28.5968;
78288215990175;27.8648;1.1956;28.6090;
78288225990175;27.8526;1.2078;28.5724;
78288235990175;27.9258;1.1590;28.4382;
78288245990175;28.0356;1.1590;28.2918;
78288255990175;28.1942;1.1956;28.1820;
78288265990175;28.3650;1.1834;28.0478;
78288275990175;28.5114;1.2078;27.8770;
78288285990175;28.7676;1.2810;27.5842;
78288295990175;29.0116;1.2444;27.2548;
78288305990175;29.2434;1.2566;27.0962;
78288315990175;29.3532;1.2932;27.0108;
78288325990175;29.4264;1.2688;26.9620;
78288335990175;29.4020;1.2200;26.9132;
78288345990175;29.4142;1.2322;26.8522;
78288355990175;29.3166;1.1590;26.9498;
78288365990175;28.8164;1.0614;27.5964;
78288375990175;28.4016;1.0370;28.1454;
78288385990175;28.3284;1.0248;28.1210;
78288395990175;28.3040;0.9638;28.2308;
78288405990175;28.1942;0.8906;28.3162;
78288415990175;28.0722;0.8052;28.5358;
78288425990175;28.0112;0.7320;28.6334;
78288435990175;28.0722;0.6710;28.5236;
78288445990175;28.4870;0.6222;27.9380;
78288455990175;28.8408;0.5490;27.4744;
78288465990175;28.8164;0.4392;27.5964;
78288475990175;28.7554;0.3538;27.6574;
78288485990175;28.7432;0.2806;27.7916;
78288495990175;28.6700;0.1830;27.8526;
78288505990175;28.4382;0.0976;28.2064;
78288515990175;28.2674;0.0610;28.4626;
78288525990175;27.9990;0.0000;28.8408;
78288535990175;27.8038;0.0122;29.0970;
78288545990175;27.5354;-0.0488;29.4630;
78288555990175;27.3280;-0.0854;29.6948;
78288565990175;27.1816;-0.1098;29.7436;
78288575990175;27.1206;-0.0732;29.7802;
78288585990175;27.1084;-0.0732;29.7070;
78288595990175;26.9986;-0.1586;29.9022;
78288605990175;26.9986;-0.1830;29.9144;
78288615990175;26.9010;-0.2074;29.9754;
78288625990175;26.9010;-0.2318;29.9022;
78288635990175;26.8522;-0.2684;29.8900;
78288645990175;26.7668;-0.3050;30.1096;
78288655990175;26.8522;-0.3660;30.0486;
78288665990175;26.9498;-0.4392;29.9388;
78288675990175;27.0474;-0.4392;29.7436;
78288685990175;27.1694;-0.4392;29.6460;
78288695990175;27.2914;-0.4758;29.5728;
78288705990175;27.2670;-0.4880;29.6338;
78288715990175;27.3280;-0.5246;29.6704;
78288725990175;27.5110;-0.5124;29.3654;
78288735990175;27.5720;-0.5002;29.1824;
78288745990175;27.7184;-0.4758;29.0116;
78288755990175;27.7672;-0.4758;28.9994;
78288765990175;27.7550;-0.5124;28.9506;
78288775990175;27.7672;-0.6100;28.8530;
78288785990175;28.0112;-0.6710;28.5724;
78288795990175;28.2308;-0.6832;28.2918;
78288805990175;28.2796;-0.7320;28.2430;
78288815990175;28.2308;-0.7442;28.3528;
78288825990175;28.1454;-0.7930;28.3772;
78288835990175;28.1088;-0.7808;28.4016;
78288845990175;28.1576;-0.8174;28.3528;
78288855990175;28.1942;-0.7686;28.2430;
78288865990175;28.0478;-0.7320;28.3406;
78288875990175;27.8526;-0.7442;28.4626;
78288885990175;27.7550;-0.7198;28.5602;
78288895990175;27.4988;-0.7442;28.8896;
78288905990175;27.4256;-0.7564;28.9994;
78288915990175;27.5598;-0.7808;28.9140;
78288925990175;27.5720;-0.7686;28.8408;
78288935990175;27.6208;-0.7442;28.8774;
78288945990175;27.7306;-0.7686;28.7798;
78288955990175;27.8892;-0.7198;28.7066;
78288965990175;28.0234;-0.7686;28.4748;
78288975990175;28.4260;-0.7686;27.9990;
78288985990175;28.5968;-0.7442;27.8404;
78288995990175;28.6822;-0.7564;27.7184;
78289005990175;28.7920;-0.7320;27.5598;
78289015990175;28.8652;-0.7198;27.4256;
78289025990175;28.9628;-0.7198;27.3158;
78289035990175;29.2556;-0.7076;26.9376;
78289045990175;29.3166;-0.6832;26.9132;
78289055990175;29.1946;-0.6344;26.9864;
78289065990175;29.0970;-0.6710;27.0718;
78289075990175;28.9994;-0.7076;27.1694;
78289085990175;28.9018;-0.7198;27.3158;
78289095990175;28.8774;-0.7320;27.3768;
78289105990175;28.8042;-0.7442;27.4500;
78289115990175;28.6334;-0.7442;27.5720;
78289125990175;28.5480;-0.7442;27.6696;
78289135990175;28.7676;-0.7320;27.4744;
78289145990175;28.9384;-0.7320;27.3280;
78289155990175;28.9994;-0.6832;27.1938;
78289165990175;28.9994;-0.7076;27.2914;
78289175990175;29.0116;-0.6832;27.3280;
78289185990175;29.0726;-0.6466;27.2914;
78289195990175;29.0848;-0.5978;27.3402;
78289205990175;29.1824;-0.5734;27.2670;
78289215990175;29.0116;-0.5612;27.4500;
78289225990175;28.9750;-0.5368;27.4378;
78289235990175;29.0116;-0.5490;27.4012;
78289245990175;29.0848;-0.5124;27.2670;
78289255990175;29.1702;-0.5246;27.1328;
78289265990175;29.1336;-0.5490;27.1328;
78289275990175;28.9628;-0.6100;27.3524;
78289285990175;28.8164;-0.6100;27.6086;
78289295990175;28.7676;-0.6588;27.6940;
78289305990175;28.6456;-0.6344;27.8404;
78289315990175;28.5480;-0.5856;28.0234;
78289325990175;28.5236;-0.5734;28.0966;
78289335990175;28.3772;-0.5978;28.2796;
78289345990175;28.4748;-0.5246;28.1698;
78289355990175;28.6456;-0.5368;27.9868;
78289365990175;28.7310;-0.5490;27.7550;
78289375990175;28.8286;-0.5368;27.6574;
78289385990175;29.0726;-0.5612;27.3524;
78289395990175;29.5972;-0.5368;26.6692;
78289405990175;29.6460;-0.6222;26.5594;
78289415990175;29.7558;-0.5368;26.3642;
78289425990175;29.8290;-0.5612;26.2788;
78289435990175;29.8168;-0.5368;26.2300;
78289445990175;29.9022;-0.5734;26.1202;
78289455990175;29.9632;-0.5978;25.9982;
78289465990175;29.8900;-0.6100;26.0592;
78289475990175;29.5606;-0.6710;26.4984;
78289485990175;29.5118;-0.6588;26.5472;
78289495990175;29.5118;-0.7076;26.5350;
78289505990175;29.4020;-0.7808;26.6082;
78289515990175;29.4752;-0.8174;26.5228;
78289525990175;29.4874;-0.8296;26.5228;
78289535990175;29.4752;-0.9028;26.5106;
78289545990175;29.4264;-0.9638;26.5228;
78289555990175;29.2678;-1.0004;26.6936;
78289565990175;29.1824;-1.0736;26.8278;
78289575990175;28.9750;-1.1712;27.1084;
78289585990175;28.8408;-1.1956;27.2914;
78289595990175;28.5602;-1.2444;27.6818;
78289605990175;28.3650;-1.3542;27.9258;
78289615990175;28.3772;-1.4030;27.9380;
78289625990175;28.3162;-1.4640;28.0844;
78289635990175;28.2308;-1.5982;28.0356;
78289645990175;28.3040;-1.6226;27.9258;
78289655990175;28.4504;-1.6592;27.7428;
78289665990175;28.6334;-1.7446;27.5964;
78289675990175;28.8286;-1.8056;27.3646;
78289685990175;29.0238;-1.7690;27.1084;
78289695990175;29.0360;-1.7446;27.0474;
78289705990175;29.1214;-1.7446;27.0108;
78289715990175;29.1458;-1.7080;27.1328;
78289725990175;29.0970;-1.7690;27.1572;
78289735990175;29.1214;-1.7934;27.1572;
78289745990175;29.0848;-1.8056;27.1084;
78289755990175;29.0970;-1.7934;27.0718;
78289765990175;29.0482;-1.7324;27.0718;
78289775990175;29.0116;-1.7324;27.1328;
78289785990175;29.0116;-1.7568;27.0840;
78289795990175;29.1580;-1.7568;26.8156;
78289805990175;29.3288;-1.7202;26.6326;
78289815990175;29.3410;-1.7080;26.5594;
78289825990175;29.3288;-1.6958;26.5716;
78289835990175;29.2800;-1.7202;26.5960;
78289845990175;29.1580;-1.8056;26.7668;
78289855990175;29.0848;-1.8422;26.8156;
78289865990175;28.9994;-1.8178;26.8766;
78289875990175;28.9628;-1.7934;27.0230;
78289885990175;28.9384;-1.7934;26.9986;
78289895990175;29.0848;-1.7690;26.9010;
78289905990175;29.1214;-1.7690;26.9010;
78289915990175;29.1092;-1.7812;26.9010;
78289925990175;29.2312;-1.8178;26.8034;
78289935990175;29.2434;-1.8544;26.8278;
78289945990175;29.2678;-1.8666;26.8522;
78289955990175;29.1824;-1.9154;26.9254;
78289965990175;28.9994;-1.9520;27.2060;
78289975990175;28.6578;-1.9764;27.5842;
78289985990175;28.4260;-1.9642;27.9258;
78289995990175;28.2918;-1.9764;28.0478;
78290005990175;28.1454;-1.9276;28.1576;
78290015990175;28.0478;-1.9032;28.2186;
78290025990175;27.9136;-1.9154;28.3284;
78290035990175;27.8526;-1.9276;28.3772;
78290045990175;27.9502;-1.9276;28.2064;
78290055990175;28.3406;-1.9276;27.7062;
78290065990175;28.4626;-1.9398;27.4744;
78290075990175;28.4626;-1.9154;27.5842;
78290085990175;28.4260;-1.9398;27.7062;
78290095990175;28.3040;-1.9642;27.8892;
78290105990175;27.9502;-1.9886;28.3650;
78290115990175;27.9014;-1.9520;28.4016;
78290125990175;27.6696;-1.9520;28.7554;
78290135990175;27.2426;-2.0008;29.2922;
78290145990175;27.0474;-2.0374;29.5484;
78290155990175;26.9010;-2.0618;29.6826;
78290165990175;26.7790;-2.0374;29.8290;
78290175990175;26.8522;-2.0618;29.8412;
78290185990175;27.2548;-2.0862;29.3410;
78290195990175;27.2792;-2.1350;29.2678;
78290205990175;27.5476;-2.1716;28.9384;
78290215990175;27.7428;-2.1594;28.6944;
78290225990175;27.9380;-2.1838;28.4382;
78290235990175;28.2064;-2.1838;28.1210;
78290245990175;28.4992;-2.1960;27.7428;
78290255990175;28.7554;-2.1716;27.4256;
78290265990175;28.8042;-2.1228;27.3768;
78290275990175;28.8774;-2.0862;27.4012;
78290285990175;28.7798;-2.0496;27.5354;
78290295990175;28.7554;-1.9764;27.5842;
78290305990175;28.7920;-1.8666;27.6208;
78290315990175;28.6944;-1.7812;27.7428;
78290325990175;28.6212;-1.7568;27.9380;
78290335990175;28.4138;-1.6836;28.1942;
78290345990175;28.2308;-1.6714;28.4382;
78290355990175;28.1210;-1.6226;28.4870;
78290365990175;28.0966;-1.5616;28.5236;
78290375990175;27.9868;-1.5494;28.6700;
78290385990175;27.7916;-1.5250;28.8530;
78290395990175;27.7062;-1.4762;28.9506;
78290405990175;27.6330;-1.4030;28.9628;
78290415990175;27.4988;-1.3908;29.0482;
78290425990175;27.4500;-1.2688;29.0116;
78290435990175;27.3646;-1.1712;29.1702;
78290445990175;27.3158;-1.0980;29.1946;
78290455990175;27.3280;-1.0004;29.1336;
78290465990175;27.5354;-0.9150;28.9262;
78290475990175;27.6452;-0.8662;28.7432;
78290485990175;27.7550;-0.7930;28.5968;
78290495990175;28.0112;-0.6954;28.3162;
78290505990175;28.2186;-0.6710;28.1454;
78290515990175;28.3040;-0.6344;28.0844;
78290525990175;28.2430;-0.5612;28.1698;
78290535990175;28.1820;-0.5490;28.2430;
78290545990175;27.9258;-0.5490;28.4992;
78290555990175;27.8526;-0.5246;28.6456;
78290565990175;27.6452;-0.5612;28.9384;
78290575990175;27.4866;-0.6100;29.1092;
78290585990175;27.3158;-0.6466;29.3532;
78290595990175;27.2426;-0.6954;29.4874;
78290605990175;27.2914;-0.7930;29.4874;
78290615990175;27.3280;-0.8540;29.4752;
78290625990175;27.3646;-0.9394;29.4752;
78290635990175;27.2426;-1.1102;29.5850;
78290645990175;27.3036;-1.1834;29.5118;
78290655990175;27.2426;-1.2566;29.6460;
78290665990175;27.1206;-1.3908;29.7924;
78290675990175;26.9742;-1.5006;29.9510;
78290685990175;26.7302;-1.6104;30.1950;
78290695990175;26.6326;-1.7202;30.3292;
78290705990175;26.9132;-1.7934;30.0730;
78290715990175;27.0962;-1.8544;29.8656;
78290725990175;27.0596;-1.9642;29.9022;
78290735990175;27.2182;-2.0008;29.7436;
78290745990175;27.5110;-2.0130;29.2800;
78290755990175;27.8160;-2.1106;28.8774;
78290765990175;28.1332;-2.1472;28.4504;
78290775990175;28.3040;-2.2326;28.2308;
78290785990175;28.1820;-2.2814;28.3528;
78290795990175;28.2186;-2.3058;28.4138;
78290805990175;28.3894;-2.3424;28.2064;
78290815990175;28.4138;-2.4522;28.0844;
78290825990175;28.3406;-2.5742;28.2308;
78290835990175;28.3040;-2.5986;28.2308;
78290845990175;28.2918;-2.5986;28.1942;
78290855990175;28.3040;-2.5864;28.0966;
78290865990175;28.3162;-2.6230;28.0234;
78290875990175;28.3040;-2.5864;27.9502;
78290885990175;28.3162;-2.5498;27.9014;
78290895990175;28.3040;-2.5132;27.9746;
78290905990175;28.4382;-2.4278;27.8160;
78290915990175;28.5846;-2.3912;27.6330;
78290925990175;28.7188;-2.3790;27.6086;
78290935990175;28.8286;-2.3180;27.5232;
78290945990175;28.9994;-2.2570;27.3768;
78290955990175;29.0604;-2.2448;27.3280;
78290965990175;29.0116;-2.2204;27.4134;
78290975990175;28.9506;-2.1960;27.4744;
78290985990175;28.7310;-2.1594;27.7916;
78290995990175;28.5236;-2.1594;28.1210;
78291005990175;28.3650;-2.1350;28.3406;
78291015990175;28.1698;-2.1228;28.5968;
78291025990175;27.8648;-2.1106;28.9506;
78291035990175;27.5964;-2.0618;29.2556;
78291045990175;27.5842;-2.0252;29.3166;
78291055990175;27.5598;-1.9276;29.3044;
78291065990175;27.6696;-1.8422;29.0482;
78291075990175;27.7916;-1.7568;28.9628;
78291085990175;27.7794;-1.6592;28.9018;
78291095990175;27.7062;-1.5982;29.0238;
78291105990175;27.6818;-1.5250;29.0360;
78291115990175;27.7916;-1.4762;28.9262;
78291125990175;27.6940;-1.3908;28.9506;
78291135990175;27.6208;-1.3420;29.1336;
78291145990175;27.6574;-1.3176;29.2068;
78291155990175;27.6208;-1.2566;29.1702;
78291165990175;27.6574;-1.2078;29.1458;
78291175990175;27.7062;-1.1224;29.0726;
78291185990175;27.7184;-1.0614;29.0726;
78291195990175;27.5598;-1.0248;29.2800;
78291205990175;27.5842;-1.0004;29.3654;
78291215990175;27.5476;-0.9882;29.3166;
78291225990175;27.4622;-0.9638;29.3532;
78291235990175;27.5110;-0.9150;29.2800;
78291245990175;27.5354;-0.8540;29.2190;
78291255990175;27.6330;-0.8662;29.0604;
78291265990175;27.7794;-0.8296;28.8652;
78291275990175;28.0478;-0.7564;28.5480;
78291285990175;28.3162;-0.6954;28.1576;
78291295990175;28.5846;-0.6222;27.9136;
78291305990175;28.8042;-0.5856;27.7184;
78291315990175;28.9140;-0.5124;27.5720;
78291325990175;29.1336;-0.4514;27.3646;
78291335990175;29.3288;-0.3416;27.1206;
78291345990175;29.5362;-0.2562;26.8644;
78291355990175;29.6338;-0.2318;26.7058;
78291365990175;29.5240;-0.1586;26.8156;
78291375990175;29.5240;-0.0854;26.8034;
78291385990175;29.3410;-0.0122;26.9132;
78291395990175;29.2434;0.0122;27.0108;
78291405990175;29.0116;0.0488;27.2182;
78291415990175;28.6456;0.0976;27.6208;
78291425990175;28.4260;0.1342;27.8038;
78291435990175;28.1820;0.2440;28.0722;
78291445990175;27.9868;0.3294;28.2430;
78291455990175;27.8770;0.4026;28.3162;
78291465990175;27.8770;0.5124;28.3162;
78291475990175;27.7916;0.6832;28.4138;
78291485990175;27.7428;0.8052;28.4626;
78291495990175;27.8038;0.9394;28.3894;
78291505990175;27.8038;1.1224;28.4748;
78291515990175;27.7672;1.2200;28.4992;
78291525990175;27.7306;1.3298;28.5724;
78291535990175;27.5598;1.5128;28.7188;
78291545990175;27.4988;1.6226;28.8530;
78291555990175;27.6086;1.7568;28.6944;
78291565990175;27.6818;1.8666;28.7066;
78291575990175;27.7550;2.0008;28.5724;
78291585990175;27.8526;2.0984;28.4138;
78291595990175;27.8892;2.2692;28.3406;
78291605990175;27.9258;2.4034;28.2308;
78291615990175;27.8648;2.4400;28.2064;
78291625990175;27.8892;2.5742;28.1698;
78291635990175;27.7306;2.5864;28.3650;
78291645990175;27.7184;2.6840;28.3040;
78291655990175;27.6940;2.7450;28.3528;
78291665990175;27.6452;2.8304;28.4016;
78291675990175;27.6940;2.8426;28.4382;
78291685990175;27.7794;2.9280;28.3772;
78291695990175;27.9990;3.1110;28.2186;
78291705990175;28.1088;3.1598;28.0844;
78291715990175;28.2430;3.2818;27.9502;
78291725990175;28.3528;3.3550;27.7916;
78291735990175;28.4138;3.4770;27.6086;
78291745990175;28.4504;3.5380;27.5720;
78291755990175;28.5236;3.6234;27.3768;
78291765990175;28.5114;3.7210;27.4256;
78291775990175;28.4016;3.6966;27.5598;
78291785990175;28.3894;3.8186;27.5476;
78291795990175;28.3040;3.8918;27.5842;
78291805990175;28.1576;3.9650;27.7428;
78291815990175;28.0356;4.0260;27.9258;
78291825990175;27.9258;4.0992;27.9746;
78291835990175;27.7062;4.1602;28.1332;
78291845990175;27.7062;4.2212;28.0478;
78291855990175;27.7062;4.3066;27.9624;
78291865990175;27.6208;4.3798;28.0112;
78291875990175;27.4866;4.4286;28.2186;
78291885990175;27.5842;4.5384;28.1210;
78291895990175;27.3524;4.6116;28.4382;
78291905990175;27.1572;4.6970;28.6578;
78291915990175;27.0108;4.7824;28.9262;
78291925990175;26.7790;4.8434;29.2800;
78291935990175;26.5838;4.9288;29.5728;
78291945990175;26.3032;4.9898;29.8778;
78291955990175;26.2422;5.1362;29.9510;
78291965990175;26.0348;5.1972;30.0974;
78291975990175;26.2666;5.3436;29.7436;
78291985990175;26.5350;5.4290;29.4020;
78291995990175;26.8888;5.5510;28.9750;
78292005990175;27.2548;5.6852;28.5114;
78292015990175;27.5964;5.8072;28.0722;
78292025990175;27.9502;5.8926;27.5964;
78292035990175;28.2552;5.9048;27.1694;
78292045990175;28.5236;5.9658;26.8522;
78292055990175;28.7188;5.9780;26.6326;
78292065990175;28.7066;6.0146;26.6936;
78292075990175;28.6090;6.0390;26.8644;
78292085990175;28.4626;6.0268;27.0596;
78292095990175;28.3162;5.9780;27.2548;
78292105990175;28.2308;5.9658;27.3768;
78292115990175;28.0966;6.0146;27.5598;
78292125990175;27.9868;5.9902;27.7550;
78292135990175;27.8892;5.9658;27.8282;
78292145990175;27.9380;5.9536;27.7428;
78292155990175;27.9990;5.9414;27.6208;
78292165990175;28.0722;5.9414;27.4744;
78292175990175;28.2674;5.9902;27.2182;
78292185990175;28.3772;5.9658;27.1328;
78292195990175;28.4870;5.9658;27.1084;
78292205990175;28.5358;6.0512;27.0596;
78292215990175;28.6090;6.0756;27.0840;
78292225990175;28.6700;6.1000;27.0108;
78292235990175;28.8530;6.1000;26.8156;
78292245990175;28.9994;6.1244;26.7302;
78292255990175;29.0360;6.1122;26.7546;
78292265990175;29.1336;6.1244;26.6692;
78292275990175;29.3166;6.1000;26.4496;
78292285990175;29.4508;6.0756;26.3642;
78292295990175;29.5972;6.0268;26.2056;
78292305990175;29.7070;6.0146;26.1690;
78292315990175;29.7314;5.9780;26.1324;
78292325990175;29.8656;5.9292;26.0226;
78292335990175;29.8168;5.8316;26.0836;
78292345990175;29.6704;5.7340;26.3154;
78292355990175;29.5240;5.6242;26.5106;
78292365990175;29.4874;5.5022;26.5472;
78292375990175;29.4142;5.3924;26.7058;
78292385990175;29.2922;5.2582;26.8522;
78292395990175;29.2800;5.1850;27.0230;
78292405990175;29.0970;5.0508;27.2426;
78292415990175;29.0848;4.9166;27.3524;
78292425990175;29.2312;4.8434;27.2060;
78292435990175;29.2800;4.7580;27.0230;
78292445990175;29.2922;4.6238;27.0108;
78292455990175;29.2556;4.5262;26.9864;
78292465990175;29.3532;4.4164;26.8644;
78292475990175;29.3288;4.2578;26.8522;
78292485990175;29.3654;4.1358;26.7424;
78292495990175;29.2922;4.0016;26.8278;
78292505990175;29.1336;3.8918;27.0108;
78292515990175;28.9384;3.7942;27.3768;
78292525990175;28.8896;3.6966;27.5354;
78292535990175;28.7920;3.5990;27.6330;
78292545990175;28.6578;3.5136;27.8160;
78292555990175;28.5968;3.4526;27.9380;
78292565990175;28.4748;3.4282;28.1210;
78292575990175;28.6456;3.4038;27.8892;
78292585990175;28.8652;3.3428;27.5598;
78292595990175;29.0970;3.2818;27.2426;
78292605990175;29.1458;3.1964;27.0962;
78292615990175;29.2434;3.1720;27.0474;
78292625990175;29.1946;3.1110;27.1206;
78292635990175;29.1336;3.0744;27.2060;
78292645990175;29.1336;3.0134;27.2426;
78292655990175;28.9140;2.9646;27.4988;
78292665990175;28.6578;2.9402;27.9014;
78292675990175;28.4504;2.9646;28.2430;
78292685990175;28.3162;2.9768;28.4626;
78292695990175;28.2064;2.9280;28.4992;
78292705990175;28.2918;2.9402;28.4870;
78292715990175;28.3650;2.9158;28.3406;
78292725990175;28.5846;2.9158;28.1088;
78292735990175;28.8042;2.9646;27.7672;
78292745990175;29.0970;2.9890;27.3524;
78292755990175;29.3532;3.0012;26.9986;
78292765990175;29.5118;3.0378;26.6936;
78292775990175;29.6338;3.0622;26.5960;
78292785990175;29.8046;3.0988;26.3520;
78292795990175;30.0120;3.1964;26.0714;
78292805990175;30.0486;3.2452;26.0226;
78292815990175;30.0608;3.3184;26.0470;
78292825990175;30.0486;3.3550;26.0958;
78292835990175;29.9266;3.3916;26.1324;
78292845990175;29.8656;3.4282;26.2666;
78292855990175;29.8168;3.4770;26.2544;
78292865990175;29.7680;3.5014;26.1934;
78292875990175;29.5728;3.5014;26.3764;
78292885990175;29.4264;3.5380;26.4740;
78292895990175;29.2190;3.5258;26.7058;
78292905990175;29.0970;3.5746;26.8400;
78292915990175;29.0360;3.5990;27.0230;
78292925990175;28.8896;3.6478;27.1816;
78292935990175;28.8164;3.7576;27.3158;
78292945990175;28.6578;3.8186;27.4988;
78292955990175;28.6700;3.8796;27.5354;
78292965990175;28.6456;3.9650;27.5598;
78292975990175;28.7554;4.0748;27.4134;
78292985990175;28.6822;4.1846;27.4500;
78292995990175;28.7066;4.2944;27.3890;
78293005990175;28.8164;4.4164;27.2182;
78293015990175;28.7432;4.5018;27.3158;
78293025990175;28.6944;4.5872;27.4134;
78293035990175;28.4992;4.6726;27.5842;
78293045990175;28.5114;4.8068;27.6940;
78293055990175;28.4016;4.9044;27.7672;
78293065990175;28.3772;4.9532;27.8892;
78293075990175;28.3162;5.0630;27.9380;
78293085990175;28.3040;5.1606;27.9258;
78293095990175;28.4626;5.2094;27.7428;
78293105990175;28.6212;5.3558;27.5110;
78293115990175;28.7676;5.5022;27.3280;
78293125990175;28.7554;5.6242;27.2670;
78293135990175;28.8896;5.7950;27.1572;
78293145990175;29.0970;5.9414;26.9010;
78293155990175;29.2312;6.0756;26.6570;
78293165990175;29.3166;6.2098;26.5228;
78293175990175;29.3532;6.3928;26.4740;
78293185990175;29.4142;6.5392;26.3886;
78293195990175;29.5362;6.6734;26.2788;
78293205990175;29.6338;6.7710;26.1080;
78293215990175;29.5850;6.8808;26.0836;
78293225990175;29.4996;7.0272;26.0836;
78293235990175;29.4386;7.1126;26.0714;
78293245990175;29.4508;7.2346;26.0348;
78293255990175;29.4996;7.3932;25.9494;
78293265990175;29.2678;7.5152;26.1202;
78293275990175;29.0970;7.6494;26.2178;
78293285990175;29.0848;7.8080;26.1446;
78293295990175;29.1214;7.9422;26.0348;
78293305990175;29.1336;8.0886;25.9738;
78293315990175;29.1702;8.2716;25.9616;
78293325990175;29.1092;8.4180;26.0470;
78293335990175;29.0116;8.5156;26.0714;
78293345990175;29.0482;8.6498;25.9860;
78293355990175;29.0848;8.7596;25.9616;
78293365990175;29.0360;8.8328;25.9738;
78293375990175;28.9384;8.9182;26.0714;
78293385990175;28.9384;9.0036;26.0714;
78293395990175;29.0238;9.0646;26.0104;
78293405990175;29.0604;9.1134;25.9250;
78293415990175;29.0604;9.1622;25.8884;
78293425990175;29.1458;9.1500;25.8152;
78293435990175;29.1946;9.1622;25.7054;
78293445990175;29.2556;9.1256;25.7054;
78293455990175;29.3166;9.1378;25.6444;
78293465990175;29.3166;9.1134;25.6200;
78293475990175;29.2190;9.0402;25.7054;
78293485990175;29.1824;8.9792;25.7298;
78293495990175;29.1580;8.8450;25.8762;
78293505990175;29.0848;8.7962;25.9982;
78293515990175;29.0116;8.6620;26.0958;
78293525990175;28.9628;8.6132;26.2422;
78293535990175;28.8652;8.3936;26.4740;
78293545990175;28.6944;8.1862;26.7180;
78293555990175;28.6090;8.0764;26.9254;
78293565990175;28.6090;7.8934;27.0352;
78293575990175;28.5968;7.8080;27.1328;
78293585990175;28.5724;7.6738;27.1816;
78293595990175;28.5114;7.5884;27.2792;
78293605990175;28.3772;7.4176;27.4134;
78293615990175;28.4016;7.3810;27.3158;
78293625990175;28.4260;7.2712;27.2914;
78293635990175;28.3528;7.1248;27.3524;
78293645990175;28.1454;7.0272;27.5476;
78293655990175;27.9990;6.9052;27.6818;
78293665990175;27.8404;6.7954;27.9136;
78293675990175;27.8160;6.6978;27.9746;
78293685990175;27.8038;6.6368;27.9746;
78293695990175;27.7184;6.5636;28.1576;
78293705990175;27.7062;6.5758;28.1820;
78293715990175;27.7550;6.5270;28.1088;
78293725990175;27.8282;6.5392;28.0356;
78293735990175;27.8648;6.5636;27.9990;
78293745990175;27.9258;6.5270;27.8892;
78293755990175;27.8892;6.5148;27.8526;
78293765990175;27.9502;6.5514;27.8892;
78293775990175;28.0234;6.5270;27.8038;
78293785990175;28.0600;6.5758;27.8404;
78293795990175;28.0966;6.6124;27.8892;
78293805990175;28.2308;6.5758;27.7916;
78293815990175;28.2552;6.5148;27.7672;
78293825990175;28.3040;6.5148;27.7062;
78293835990175;28.3894;6.5148;27.6330;
78293845990175;28.4504;6.4538;27.4988;
78293855990175;28.5114;6.4660;27.3768;
78293865990175;28.6456;6.4416;27.1084;
78293875990175;28.6944;6.4294;26.9254;
78293885990175;28.6212;6.4782;26.9376;
78293895990175;28.6212;6.5148;26.9132;
78293905990175;28.5846;6.5636;26.9254;
78293915990175;28.5602;6.5636;26.9254;
78293925990175;28.5846;6.6246;26.9010;
78293935990175;28.4870;6.6124;26.9742;
78293945990175;28.3772;6.6246;27.1938;
78293955990175;28.3406;6.6246;27.3646;
78293965990175;28.3406;6.6124;27.3280;
78293975990175;28.3040;6.6124;27.4256;
78293985990175;28.2918;6.6002;27.6330;
78293995990175;28.3528;6.5758;27.7062;
78294005990175;28.2552;6.5148;27.8282;
78294015990175;28.4382;6.4538;27.7062;
78294025990175;28.4870;6.3562;27.6696;
78294035990175;28.5724;6.3196;27.5964;
78294045990175;28.7432;6.2708;27.5232;
78294055990175;28.9506;6.1732;27.2548;
78294065990175;29.1214;6.1244;26.9620;
78294075990175;29.1214;6.1244;26.9864;
78294085990175;29.1214;6.0634;27.1084;
78294095990175;29.0726;6.0512;27.2060;
78294105990175;29.0848;6.0390;27.3036;
78294115990175;29.0116;5.9658;27.3768;
78294125990175;29.0116;5.9414;27.4012;
78294135990175;29.0604;5.9536;27.4622;
78294145990175;29.0848;5.8926;27.5232;
78294155990175;29.0604;5.8316;27.5842;
78294165990175;29.1580;5.8316;27.4744;
78294175990175;29.2068;5.7584;27.5354;
78294185990175;29.2190;5.7218;27.5354;
78294195990175;29.2312;5.7096;27.6452;
78294205990175;28.9994;5.5998;28.0478;
78294215990175;28.6822;5.5266;28.5724;
78294225990175;28.4504;5.4778;28.9506;
78294235990175;28.2674;5.3802;29.2068;
78294245990175;28.1454;5.2704;29.4996;
78294255990175;27.8648;5.1606;29.8778;
78294265990175;27.7306;5.0874;30.1950;
78294275990175;27.5964;4.9532;30.4390;
78294285990175;27.5476;4.8922;30.5488;
78294295990175;27.5354;4.6848;30.5122;
78294305990175;27.4744;4.5506;30.6830;
78294315990175;27.4744;4.4408;30.8294;
78294325990175;27.4866;4.3188;30.8538;
78294335990175;27.6086;4.1724;30.7074;
78294345990175;27.7550;4.0016;30.5366;
78294355990175;27.9014;3.8430;30.3536;
78294365990175;28.1088;3.6600;30.1096;
78294375990175;28.2796;3.5868;29.9754;
78294385990175;28.4260;3.4282;29.7802;
78294395990175;28.5846;3.3062;29.4752;
78294405990175;28.6578;3.1842;29.3654;
78294415990175;28.6944;3.1720;29.3288;
78294425990175;28.6456;3.1232;29.1824;
78294435990175;28.6334;3.0988;29.1458;
78294445990175;28.5114;3.0866;29.1824;
78294455990175;28.4870;3.0988;29.0848;
78294465990175;28.4748;3.1476;28.9506;
78294475990175;28.4016;3.1720;28.9384;
78294485990175;28.3406;3.2086;28.8530;
78294495990175;28.2674;3.1842;28.7798;
78294505990175;28.3040;3.2086;28.7920;
78294515990175;28.3284;3.2696;28.6456;
78294525990175;28.3406;3.3062;28.6090;
78294535990175;28.4016;3.3550;28.4992;
78294545990175;28.4870;3.4526;28.3162;
78294555990175;28.5358;3.5258;28.1820;
78294565990175;28.6700;3.6112;27.9990;
78294575990175;28.6578;3.6966;28.0478;
78294585990175;28.5480;3.7576;28.0478;
78294595990175;28.3772;3.7942;28.2552;
78294605990175;28.2918;3.8064;28.2552;
78294615990175;28.1820;3.8186;28.2674;
78294625990175;28.1698;3.7942;28.2430;
78294635990175;28.1942;3.7210;28.2552;
78294645990175;28.2674;3.6478;28.2064;
78294655990175;28.4504;3.6234;27.8892;
78294665990175;28.6212;3.5502;27.6940;
78294675990175;28.8652;3.4648;27.4134;
78294685990175;28.9628;3.3794;27.3524;
78294695990175;28.9384;3.2330;27.4134;
78294705990175;28.8408;3.0378;27.5476;
78294715990175;28.7554;2.8914;27.6330;
78294725990175;28.4992;2.6718;27.9136;
78294735990175;28.2796;2.4522;28.3406;
78294745990175;28.0722;2.2204;28.6212;
78294755990175;27.9380;1.9398;28.7920;
78294765990175;27.8526;1.6348;28.8652;
78294775990175;27.8404;1.3420;28.9140;
78294785990175;27.8160;1.1102;28.9628;
78294795990175;27.9502;0.8662;28.8164;
78294805990175;28.0234;0.6100;28.6944;
78294815990175;28.1942;0.3416;28.4016;
78294825990175;28.2796;0.1586;28.2674;
78294835990175;28.3040;0.0244;28.2674;
78294845990175;28.3528;-0.0610;28.1332;
78294855990175;28.3528;-0.1586;28.1088;
78294865990175;28.3406;-0.2562;28.0478;
78294875990175;28.2918;-0.2928;28.1088;
78294885990175;28.2674;-0.3538;28.0966;
78294895990175;28.1942;-0.3538;28.2430;
78294905990175;28.2308;-0.4148;28.2552;
78294915990175;28.2430;-0.4514;28.2674;
78294925990175;28.2064;-0.5002;28.3528;
78294935990175;28.2430;-0.5612;28.4260;
78294945990175;28.2674;-0.5978;28.4504;
78294955990175;28.1698;-0.6954;28.6334;
78294965990175;28.2430;-0.7198;28.6822;
78294975990175;28.2796;-0.8174;28.5846;
78294985990175;28.3162;-0.9150;28.4748;
78294995990175;28.3772;-1.0126;28.4138;
78295005990175;28.3650;-1.1468;28.3650;
78295015990175;28.4870;-1.2444;28.0966;
78295025990175;28.8286;-1.3176;27.7062;
78295035990175;29.0482;-1.4030;27.2548;
78295045990175;29.2312;-1.5372;26.9376;
78295055990175;29.3532;-1.6958;26.7180;
78295065990175;29.3654;-1.8544;26.6936;
78295075990175;29.3532;-2.0374;26.6448;
78295085990175;29.4264;-2.1960;26.5960;
78295095990175;29.3776;-2.4400;26.6570;
78295105990175;29.0604;-2.7450;27.0718;
78295115990175;28.8652;-3.0256;27.3280;
78295125990175;28.6578;-3.2452;27.5964;
78295135990175;28.4748;-3.4892;27.8526;
78295145990175;28.3162;-3.7332;27.9990;
78295155990175;28.2430;-4.0016;28.0844;
78295165990175;28.0600;-4.1846;28.1698;
78295175990175;27.9502;-4.3432;28.2796;
78295185990175;28.0966;-4.5018;28.0600;
78295195990175;28.1454;-4.5994;27.9868;
78295205990175;28.1576;-4.6970;27.8160;
78295215990175;28.2308;-4.7702;27.6940;
78295225990175;28.3040;-4.7580;27.6696;
78295235990175;28.4504;-4.6726;27.4500;
78295245990175;28.6700;-4.6238;27.2182;
78295255990175;28.9262;-4.5506;26.9254;
78295265990175;28.9262;-4.4286;26.8034;
78295275990175;29.1946;-4.2822;26.5594;
78295285990175;29.4020;-4.1480;26.4374;
78295295990175;29.4874;-4.0138;26.2910;
78295305990175;29.5728;-3.9040;26.1690;
78295315990175;29.5118;-3.8308;26.2788;
78295325990175;29.4630;-3.7576;26.3520;
78295335990175;29.2922;-3.6722;26.5594;
78295345990175;29.1946;-3.5624;26.7424;
78295355990175;28.9506;-3.4892;27.0718;
78295365990175;28.7554;-3.4526;27.2914;
78295375990175;28.6334;-3.3550;27.5476;
78295385990175;28.5358;-3.2452;27.5964;
78295395990175;28.5358;-3.1232;27.5476;
78295405990175;28.5968;-3.0134;27.5232;
78295415990175;28.5846;-2.9280;27.4866;
78295425990175;28.5236;-2.8548;27.4744;
78295435990175;28.4626;-2.7450;27.4866;
78295445990175;28.3894;-2.5864;27.4622;
78295455990175;28.2430;-2.5254;27.5964;
78295465990175;28.2308;-2.4766;27.6696;
78295475990175;28.1942;-2.4278;27.7428;
78295485990175;28.0844;-2.3668;27.9258;
78295495990175;28.0722;-2.2936;28.0356;
78295505990175;27.9990;-2.2448;28.1942;
78295515990175;28.0722;-2.2570;28.0966;
78295525990175;28.1210;-2.2692;28.0722;
78295535990175;28.3650;-2.2692;27.8038;
78295545990175;28.5114;-2.2570;27.6330;
78295555990175;28.5846;-2.2570;27.5598;
78295565990175;28.5968;-2.3058;27.4256;
78295575990175;28.5602;-2.3790;27.4500;
78295585990175;28.6822;-2.4522;27.2670;
78295595990175;28.7432;-2.5132;27.2670;
78295605990175;28.7676;-2.5376;27.3158;
78295615990175;28.6822;-2.5864;27.3768;
78295625990175;28.5480;-2.6718;27.4622;
78295635990175;28.5358;-2.7572;27.4500;
78295645990175;28.5236;-2.7694;27.4988;
78295655990175;28.5968;-2.8182;27.3646;
78295665990175;28.5358;-2.8670;27.4500;
78295675990175;28.4748;-2.9280;27.4378;
78295685990175;28.4626;-2.9646;27.4256;
78295695990175;28.4504;-3.0012;27.4500;
78295705990175;28.5480;-3.0378;27.4012;
78295715990175;28.4992;-3.0256;27.4378;
78295725990175;28.5114;-3.1232;27.4378;
78295735990175;28.5358;-3.1598;27.4012;
78295745990175;28.6212;-3.1720;27.3158;
78295755990175;28.6700;-3.1720;27.2792;
78295765990175;28.7066;-3.2574;27.1572;
78295775990175;28.8652;-3.3062;26.8888;
78295785990175;28.8530;-3.3428;26.8766;
78295795990175;28.9140;-3.4160;26.8034;
78295805990175;29.0482;-3.4282;26.6082;
78295815990175;29.0360;-3.5014;26.6082;
78295825990175;29.0360;-3.5502;26.6204;
78295835990175;28.9506;-3.6478;26.6692;
78295845990175;28.9262;-3.6478;26.7180;
78295855990175;28.7188;-3.7454;27.0108;
78295865990175;28.6456;-3.7820;27.0108;
78295875990175;28.5358;-3.8796;27.1572;
78295885990175;28.3528;-3.9650;27.3890;
78295895990175;28.3284;-4.0016;27.4378;
78295905990175;28.3162;-4.0382;27.4134;
78295915990175;28.3040;-4.0748;27.3890;
78295925990175;28.2796;-4.1480;27.4866;
78295935990175;28.3040;-4.1480;27.4378;
78295945990175;28.3162;-4.1968;27.4866;
78295955990175;28.3894;-4.1846;27.4500;
78295965990175;28.4504;-4.1602;27.3646;
78295975990175;28.4260;-4.1846;27.3280;
78295985990175;28.4626;-4.2334;27.2914;
78295995990175;28.5602;-4.2700;27.2182;
78296005990175;28.5846;-4.2944;27.0962;
78296015990175;28.6456;-4.2944;26.9742;
78296025990175;28.7432;-4.3188;26.8522;
78296035990175;28.6822;-4.3432;26.7668;
78296045990175;28.5846;-4.4042;26.7668;
78296055990175;28.7432;-4.3920;26.6204;
78296065990175;28.7310;-4.3676;26.5960;
78296075990175;28.7554;-4.3676;26.5350;
78296085990175;28.7432;-4.3554;26.6448;
78296095990175;28.6700;-4.3676;26.7790;
78296105990175;28.4992;-4.3676;26.9376;
78296115990175;28.5968;-4.3554;26.8644;
78296125990175;28.6212;-4.3432;26.8644;
78296135990175;28.4626;-4.3432;27.0230;
78296145990175;28.3284;-4.3920;27.1938;
78296155990175;28.1698;-4.4042;27.3646;
78296165990175;27.9990;-4.3798;27.6086;
78296175990175;28.1210;-4.3676;27.4500;
78296185990175;28.1698;-4.3554;27.4134;
78296195990175;28.0600;-4.3676;27.5720;
78296205990175;28.0478;-4.3798;27.6086;
78296215990175;28.0722;-4.3920;27.6208;
78296225990175;27.9624;-4.3798;27.6818;
78296235990175;27.9990;-4.3798;27.6818;
78296245990175;28.1332;-4.4164;27.4622;
78296255990175;28.0600;-4.5018;27.5110;
78296265990175;28.0722;-4.5628;27.5110;
78296275990175;28.1576;-4.5872;27.4012;
78296285990175;28.1942;-4.5994;27.3524;
78296295990175;28.1698;-4.6116;27.3768;
78296305990175;28.2918;-4.6360;27.2426;
78296315990175;28.2552;-4.6482;27.2182;
78296325990175;28.2186;-4.6482;27.2426;
78296335990175;28.1088;-4.6360;27.4012;
78296345990175;28.0234;-4.5872;27.4988;
78296355990175;27.8526;-4.6848;27.6940;
78296365990175;27.8526;-4.6848;27.6574;
78296375990175;27.8526;-4.7214;27.5964;
78296385990175;27.9258;-4.6848;27.6086;
78296395990175;28.0112;-4.7092;27.5232;
78296405990175;28.1210;-4.7092;27.3890;
78296415990175;28.1332;-4.7092;27.3524;
78296425990175;28.1210;-4.7580;27.3524;
78296435990175;28.2186;-4.6604;27.2426;
78296445990175;28.2308;-4.6726;27.2426;
78296455990175;28.2552;-4.6482;27.3158;
78296465990175;28.1576;-4.6848;27.3768;
78296475990175;28.1210;-4.6604;27.4866;
78296485990175;27.9990;-4.6970;27.5964;
78296495990175;28.0600;-4.7092;27.5842;
78296505990175;28.2064;-4.6726;27.4012;
78296515990175;28.2064;-4.7214;27.3280;
78296525990175;28.3040;-4.6970;27.3524;
78296535990175;28.2796;-4.6726;27.2914;
78296545990175;28.3650;-4.6604;27.1938;
78296555990175;28.4016;-4.6726;27.2304;
78296565990175;28.3772;-4.6482;27.3402;
78296575990175;28.2186;-4.6482;27.5476;
78296585990175;28.0356;-4.6848;27.7550;
78296595990175;28.1332;-4.6604;27.7306;
78296605990175;28.1210;-4.6604;27.6330;
78296615990175;28.1698;-4.6970;27.5964;
78296625990175;28.1576;-4.6970;27.6208;
78296635990175;28.1332;-4.6604;27.5232;
78296645990175;28.1576;-4.6970;27.4256;
78296655990175;28.1942;-4.6848;27.2670;
78296665990175;28.2796;-4.6848;27.1694;
78296675990175;28.1942;-4.7092;27.2792;
78296685990175;28.0234;-4.7336;27.4622;
78296695990175;27.9380;-4.7458;27.5720;
78296705990175;27.9136;-4.7336;27.6452;
78296715990175;27.8892;-4.8312;27.6452;
78296725990175;27.9624;-4.8434;27.6574;
78296735990175;28.0722;-4.8190;27.5476;
78296745990175;28.1698;-4.8556;27.5354;
78296755990175;28.1454;-4.8678;27.5476;
78296765990175;28.2430;-4.8556;27.4622;
78296775990175;28.2064;-4.9410;27.4622;
78296785990175;28.1942;-5.0142;27.3402;
78296795990175;28.2186;-4.9898;27.4134;
78296805990175;28.1576;-5.0020;27.3768;
78296815990175;28.1332;-5.0264;27.3646;
78296825990175;28.1820;-5.0264;27.1694;
78296835990175;28.2552;-5.0752;26.9864;
78296845990175;28.1210;-5.1606;26.9986;
78296855990175;28.1332;-5.1362;26.8766;
78296865990175;28.0600;-5.1484;26.9742;
78296875990175;28.0234;-5.1972;26.8644;
78296885990175;28.0844;-5.1850;26.8156;
78296895990175;28.0722;-5.2216;26.8156;
78296905990175;27.9624;-5.2460;26.9620;
78296915990175;27.9136;-5.2216;27.1572;
78296925990175;28.0234;-5.1606;27.1450;
78296935990175;28.0966;-5.1606;27.1694;
78296945990175;28.1820;-5.1362;27.1816;
78296955990175;28.2430;-5.0996;27.2426;
78296965990175;28.1820;-5.0874;27.3768;
78296975990175;28.2796;-5.0874;27.3646;
78296985990175;28.3528;-5.0874;27.2182;
78296995990175;28.5724;-5.0874;26.9742;
78297005990175;28.7310;-5.0752;26.7912;
78297015990175;28.7676;-5.0508;26.7302;
78297025990175;28.9384;-5.0630;26.4984;
78297035990175;28.9994;-5.0508;26.3276;
78297045990175;29.0360;-5.0752;26.1934;
78297055990175;29.0970;-5.0630;26.0836;
78297065990175;29.0482;-5.0386;26.2178;
78297075990175;28.7188;-5.0630;26.4984;
78297085990175;28.2308;-5.1484;26.9010;
78297095990175;27.9380;-5.1362;27.2792;
78297105990175;27.6086;-5.1484;27.5964;
78297115990175;27.4500;-5.1606;27.8038;
78297125990175;27.2548;-5.1972;27.9380;
78297135990175;27.2060;-5.1850;27.9136;
78297145990175;27.3036;-5.1606;27.7794;
78297155990175;27.4378;-5.1484;27.5598;
78297165990175;27.8526;-5.1240;27.1572;
78297175990175;28.0722;-5.1606;26.7912;
78297185990175;28.1942;-5.1484;26.5960;
78297195990175;28.1942;-5.1850;26.4008;
78297205990175;28.3284;-5.1972;26.1934;
78297215990175;28.2064;-5.2094;26.3520;
78297225990175;28.1332;-5.2460;26.3520;
78297235990175;28.1210;-5.2582;26.2300;
