Sensor: mmc5603x Magnetometer Non-wakeup
Vendor: memsic
TimestampMag [ns]; MagX [uT]; MagY [uT]; MagZ [uT]
5087203170310656;48.4218;12.4562;-7.8202;
5087203180310656;48.4218;12.4562;-7.8202;
5087203191686072;48.3608;12.4440;-7.8202;
5087203201686072;48.5194;12.3952;-7.9544;
5087203211686072;48.5316;12.3708;-8.0398;
5087203221686072;48.5072;12.3342;-8.0032;
5087203231686072;48.3486;12.3464;-7.8080;
5087203241686072;48.1656;12.3220;-7.6128;
5087203251686072;48.0314;12.2976;-7.4542;
5087203261686072;47.9094;12.2732;-7.3566;
5087203271686072;47.9460;12.2732;-7.3444;
5087203281686072;47.8118;12.2488;-7.2102;
5087203291686072;47.8118;12.2854;-7.1370;
5087203301686072;47.7874;12.2854;-7.0516;
5087203311686072;47.8606;12.2610;-7.1736;
5087203321686072;47.9826;12.2854;-7.2834;
5087203331686072;48.0314;12.2976;-7.3200;
5087203341686072;48.0558;12.2854;-7.3322;
5087203351686072;47.9460;12.2610;-7.3200;
5087203361686072;47.9460;12.2244;-7.3322;
5087203371686072;47.7508;12.1512;-7.1736;
5087203381686072;47.5922;12.1390;-7.0150;
5087203391686072;47.5922;12.1024;-7.0272;
5087203401686072;47.6532;12.1024;-7.1370;
5087203411686072;47.8118;12.0658;-7.3322;
5087203421686072;47.8606;12.0292;-7.3932;
5087203431686072;47.9216;12.0048;-7.4176;
5087203441686072;47.9582;12.0292;-7.4420;
5087203451686072;48.0436;12.0292;-7.5274;
5087203461686072;48.2632;12.0170;-7.7958;
5087203471686072;48.2876;12.0170;-7.8080;
5087203481686072;48.2144;11.9438;-7.7104;
5087203491686072;47.9460;11.8340;-7.5030;
5087203501686072;47.8728;11.7608;-7.4176;
5087203511686072;47.7020;11.6754;-7.2346;
5087203521686072;47.6166;11.5412;-7.1492;
5087203531686072;47.5922;11.4192;-7.1004;
5087203541686072;47.4824;11.2606;-7.0150;
5087203551686072;47.4580;11.1020;-7.0150;
5087203561686072;47.4580;10.9800;-7.0028;
5087203571686072;47.5556;10.9190;-6.9906;
5087203581686072;47.4946;10.8580;-6.9174;
5087203591686072;47.5190;10.7848;-6.9540;
5087203601686072;47.4824;10.7482;-6.8930;
5087203611686072;47.4336;10.6506;-6.9174;
5087203621686072;47.4824;10.5896;-6.9784;
5087203631686072;47.4580;10.5408;-6.9662;
5087203641686072;47.5434;10.4554;-7.0272;
5087203651686072;47.5800;10.3822;-7.1492;
5087203661686072;47.7874;10.2846;-7.3688;
5087203671686072;47.9582;10.2236;-7.5152;
5087203681686072;48.1046;10.1504;-7.6738;
5087203691686072;48.3242;10.1626;-7.9300;
5087203701686072;48.3242;10.1016;-7.9910;
5087203711686072;48.3608;10.0406;-7.9544;
5087203721686072;48.3730;10.0284;-7.9300;
5087203731686072;48.4828;9.9430;-8.0154;
5087203741686072;48.5194;9.8820;-8.0276;
5087203751686072;48.4828;9.8332;-8.0642;
5087203761686072;48.4706;9.7844;-8.0398;
5087203771686072;48.3730;9.6868;-7.8568;
5087203781686072;48.3486;9.6746;-7.7470;
5087203791686072;48.2876;9.6136;-7.6250;
5087203801686072;48.2388;9.5526;-7.5884;
5087203811686072;48.0436;9.4794;-7.4176;
5087203821686072;47.9582;9.4428;-7.3810;
5087203831686072;47.8728;9.3818;-7.1858;
5087203841686072;47.8972;9.2842;-7.2346;
5087203851686072;47.8728;9.2232;-7.2102;
5087203861686072;47.8728;9.1134;-7.1614;
5087203871686072;47.9826;9.0768;-7.3566;
5087203881686072;47.9338;8.9670;-7.3322;
5087203891686072;48.0558;8.8938;-7.4664;
5087203901686072;48.1046;8.8084;-7.5030;
5087203911686072;48.1900;8.6864;-7.6738;
5087203921686072;48.1046;8.6254;-7.5884;
5087203931686072;48.0680;8.4912;-7.5884;
5087203941686072;48.0558;8.3692;-7.6372;
5087203951686072;48.0070;8.2106;-7.5518;
5087203961686072;48.0314;8.0764;-7.6128;
5087203971686072;48.0070;7.9788;-7.5884;
5087203981686072;47.9948;7.8324;-7.6128;
5087203991686072;47.9826;7.7348;-7.5152;
5087204001686072;48.0192;7.5274;-7.5396;
5087204011686072;48.1168;7.4054;-7.6860;
5087204021686072;48.2266;7.2834;-7.8202;
5087204031686072;48.1778;7.1370;-7.9056;
5087204041686072;48.1290;6.9906;-7.8446;
5087204051686072;48.0924;6.7954;-7.8690;
5087204061686072;47.9704;6.5880;-7.7714;
5087204071686072;47.9216;6.3928;-7.7958;
5087204081686072;47.8484;6.2830;-7.7836;
5087204091686072;47.6044;6.1244;-7.5762;
5087204101686072;47.3604;6.0146;-7.4176;
5087204111686072;47.1896;5.8682;-7.3444;
5087204121686072;47.2018;5.7828;-7.4420;
5087204131686072;47.2384;5.7096;-7.5152;
5087204141686072;47.2750;5.6120;-7.6494;
5087204151686072;47.2872;5.5022;-7.7958;
5087204161686072;47.3116;5.4290;-7.8934;
5087204171686072;47.4336;5.3924;-8.0154;
5087204181686072;47.5068;5.2704;-8.1008;
5087204191686072;47.5922;5.2216;-8.0886;
5087204201686072;47.6654;5.0996;-8.2106;
5087204211686072;47.4824;5.0142;-8.0276;
5087204221686072;47.4580;4.9532;-7.9178;
5087204231686072;47.5678;4.8678;-8.1130;
5087204241686072;47.6654;4.7702;-8.2594;
5087204251686072;47.8240;4.6848;-8.4790;
5087204261686072;47.9704;4.5750;-8.5888;
5087204271686072;48.1534;4.5262;-8.8450;
5087204281686072;48.1046;4.4164;-8.7474;
5087204291686072;48.1900;4.2700;-8.8694;
5087204301686072;48.1534;4.1724;-8.8572;
5087204311686072;47.9216;4.1236;-8.5522;
5087204321686072;47.8972;4.0504;-8.4424;
5087204331686072;47.8118;3.9406;-8.2472;
5087204341686072;47.7020;3.9162;-8.1862;
5087204351686072;47.5190;3.8674;-7.9788;
5087204361686072;47.5190;3.8918;-7.9178;
5087204371686072;47.3848;3.9040;-7.7104;
5087204381686072;47.2872;3.9406;-7.6128;
5087204391686072;47.2384;3.9162;-7.5274;
5087204401686072;47.0676;3.8796;-7.4054;
5087204411686072;47.0432;3.9040;-7.4298;
5087204421686072;47.0310;3.9528;-7.4298;
5087204431686072;47.1408;3.9162;-7.5396;
5087204441686072;47.2262;3.9162;-7.7226;
5087204451686072;47.4580;3.9772;-8.1008;
5087204461686072;47.3116;3.9650;-7.8202;
5087204471686072;47.3970;3.9650;-7.9056;
5087204481686072;47.3482;4.0016;-7.8690;
5087204491686072;47.3238;3.9894;-7.8202;
5087204501686072;47.1896;3.9528;-7.6494;
5087204511686072;47.1408;3.9650;-7.5884;
5087204521686072;46.9822;4.0016;-7.3444;
5087204531686072;46.7748;3.9772;-7.0516;
5087204541686072;47.0554;4.0016;-7.3322;
5087204551686072;46.9822;4.1114;-7.2590;
5087204561686072;47.1408;4.1724;-7.4420;
5087204571686072;47.1408;4.2334;-7.4420;
5087204581686072;47.2750;4.2822;-7.6372;
5087204591686072;47.3238;4.3188;-7.6738;
5087204601686072;47.3848;4.3188;-7.7592;
5087204611686072;47.4702;4.3554;-7.9056;
5087204621686072;47.4702;4.3920;-8.0154;
5087204631686072;47.5068;4.3920;-8.0276;
5087204641686072;47.4458;4.3920;-7.8934;
5087204651686072;47.3726;4.3554;-7.8690;
5087204661686072;47.2994;4.3554;-7.7226;
5087204671686072;47.1652;4.3432;-7.6006;
5087204681686072;47.1164;4.3310;-7.5518;
5087204691686072;47.1774;4.3554;-7.5762;
5087204701686072;47.0798;4.3310;-7.5274;
5087204711686072;47.0066;4.3066;-7.5396;
5087204721686072;46.8846;4.3554;-7.4176;
5087204731686072;46.9456;4.4164;-7.4664;
5087204741686072;46.8846;4.4042;-7.3932;
5087204751686072;46.7748;4.4164;-7.2590;
5087204761686072;46.5796;4.4286;-7.0028;
5087204771686072;46.4454;4.4164;-6.8442;
5087204781686072;46.5308;4.4286;-6.8686;
5087204791686072;46.6772;4.4652;-6.9418;
5087204801686072;46.8358;4.4774;-7.2346;
5087204811686072;46.8480;4.4896;-7.2102;
5087204821686072;46.9944;4.5628;-7.4054;
5087204831686072;47.3360;4.6604;-7.8080;
5087204841686072;47.5434;4.7580;-8.1496;
5087204851686072;47.6776;4.8800;-8.3570;
5087204861686072;47.8484;4.9776;-8.6132;
5087204871686072;47.9216;5.1118;-8.6864;
5087204881686072;47.9948;5.1850;-8.7596;
5087204891686072;47.9948;5.3436;-8.7840;
5087204901686072;47.9338;5.4778;-8.7230;
5087204911686072;47.7630;5.5754;-8.5400;
5087204921686072;47.7142;5.7462;-8.4668;
5087204931686072;47.6654;5.9048;-8.3326;
5087204941686072;47.5556;6.1000;-8.1618;
5087204951686072;47.5068;6.2586;-8.1862;
5087204961686072;47.4580;6.5148;-8.0642;
5087204971686072;47.4946;6.7100;-8.1008;
5087204981686072;47.5800;6.9174;-8.1496;
5087204991686072;47.6288;7.1370;-8.1374;
5087205001686072;47.7752;7.3688;-8.2106;
5087205011686072;47.8606;7.5884;-8.2960;
5087205021686072;47.8728;7.7958;-8.3326;
5087205031686072;48.0314;8.0398;-8.4424;
5087205041686072;48.1168;8.2350;-8.5400;
5087205051686072;48.1290;8.4790;-8.5400;
5087205061686072;48.1534;8.7474;-8.6254;
5087205071686072;48.2998;9.0036;-8.8084;
5087205081686072;48.3242;9.2476;-8.8694;
5087205091686072;48.3364;9.4306;-8.8816;
5087205101686072;48.3120;9.6624;-8.8084;
5087205111686072;48.2388;9.8820;-8.6986;
5087205121686072;48.1656;10.1138;-8.6254;
5087205131686072;48.0436;10.3212;-8.4180;
5087205141686072;47.9704;10.4920;-8.2716;
5087205151686072;47.7142;10.7116;-8.0154;
5087205161686072;47.6898;10.8580;-7.9300;
5087205171686072;47.6044;11.0532;-7.8690;
5087205181686072;47.6044;11.2240;-7.9910;
5087205191686072;47.5434;11.3460;-8.0520;
5087205201686072;47.5556;11.4436;-8.1130;
5087205211686072;47.5922;11.5046;-8.3814;
5087205221686072;47.5678;11.5656;-8.4424;
5087205231686072;47.5800;11.5656;-8.5766;
5087205241686072;47.5434;11.6022;-8.7352;
5087205251686072;47.5190;11.6144;-8.7718;
5087205261686072;47.4946;11.5534;-8.8328;
5087205271686072;47.3970;11.5046;-8.7596;
5087205281686072;47.3360;11.4070;-8.8084;
5087205291686072;47.3604;11.3094;-8.8572;
5087205301686072;47.3604;11.1996;-9.0280;
5087205311686072;47.5190;11.0654;-9.1744;
5087205321686072;47.5312;10.9312;-9.1622;
5087205331686072;47.4946;10.7848;-9.1866;
5087205341686072;47.5800;10.6384;-9.2110;
5087205351686072;47.6776;10.4920;-9.3452;
5087205361686072;47.7996;10.3822;-9.4428;
5087205371686072;47.8728;10.2358;-9.5038;
5087205381686072;47.9338;10.0772;-9.4794;
5087205391686072;47.8240;9.9552;-9.3696;
5087205401686072;47.8972;9.8332;-9.4794;
5087205411686072;47.9460;9.6868;-9.5038;
5087205421686072;47.8972;9.5404;-9.4062;
5087205431686072;47.9216;9.3696;-9.3696;
5087205441686072;47.7630;9.2232;-9.1256;
5087205451686072;47.6044;9.1134;-8.8572;
5087205461686072;47.5434;9.0158;-8.7108;
5087205471686072;47.4702;8.8816;-8.5278;
5087205481686072;47.2872;8.7108;-8.2960;
5087205491686072;47.2872;8.6010;-8.1862;
5087205501686072;47.0920;8.4302;-7.9910;
5087205511686072;46.7626;-4.3432;-9.2110;
5087205521686072;46.7748;-4.4652;-9.1866;
5087205531686072;46.8480;-4.5628;-9.2598;
5087205541686072;46.8358;-4.6848;-9.2232;
5087205551686072;47.0066;-4.7946;-9.4428;
5087205561686072;46.9578;-4.9410;-9.3208;
5087205571686072;47.0188;-5.0630;-9.4062;
5087205581686072;47.1896;-5.1362;-9.5526;
5087205591686072;47.2994;-5.2094;-9.7234;
5087205601686072;47.3970;-5.2704;-9.8332;
5087205611686072;47.3238;-5.3802;-9.6990;
5087205621686072;47.4214;-5.4168;-9.7844;
5087205631686072;47.3238;-5.4656;-9.7356;
5087205641686072;47.7020;-5.4046;-10.1748;
5087205651686072;47.6288;-5.6364;-10.2236;
5087205661686072;47.6288;-5.6242;-10.2602;
5087205671686072;47.6166;-5.6242;-10.1992;
5087205681686072;47.5190;-5.6608;-10.1138;
5087205691686072;47.5068;-5.6608;-10.1626;
5087205701686072;47.3482;-5.6364;-10.0162;
5087205711686072;47.2750;-5.6608;-9.9064;
5087205721686072;46.9578;-5.7340;-9.5770;
5087205731686072;46.8480;-5.7706;-9.3940;
5087205741686072;46.7626;-5.7706;-9.2598;
5087205751686072;46.7626;-5.7462;-9.2842;
5087205761686072;46.8480;-5.7462;-9.3452;
5087205771686072;46.8846;-5.7462;-9.3452;
5087205781686072;46.9700;-5.7584;-9.4672;
5087205791686072;47.0676;-5.7706;-9.5404;
5087205801686072;47.2018;-5.7462;-9.6380;
5087205811686072;47.3238;-5.7340;-9.7356;
5087205821686072;47.2872;-5.7584;-9.6868;
5087205831686072;47.2994;-5.7706;-9.6380;
5087205841686072;47.2872;-5.7462;-9.5282;
5087205851686072;47.4946;-5.7584;-9.7356;
5087205861686072;47.5556;-5.7706;-9.7356;
5087205871686072;47.5434;-5.7340;-9.7478;
5087205881686072;47.5556;-5.7218;-9.7356;
5087205891686072;47.6044;-5.7096;-9.8576;
5087205901686072;47.7508;-5.6730;-10.0894;
5087205911686072;47.7508;-5.6974;-10.1260;
5087205921686072;47.7020;-5.6852;-10.1626;
5087205931686072;47.5678;-5.6608;-10.0528;
5087205941686072;47.5190;-5.6364;-9.9674;
5087205951686072;47.4946;-5.6364;-9.8088;
5087205961686072;47.5312;-5.6364;-9.7966;
5087205971686072;47.6044;-5.5998;-9.8088;
5087205981686072;47.7386;-5.5754;-9.9186;
5087205991686072;47.8240;-5.5144;-9.9918;
5087206001686072;48.0558;-5.5022;-10.2602;
5087206011686072;48.2144;-5.4534;-10.5042;
5087206021686072;48.2876;-5.3924;-10.6872;
5087206031686072;48.3974;-5.2826;-10.8824;
5087206041686072;48.4096;-5.1972;-11.0166;
5087206051686072;48.5316;-5.1240;-11.2118;
5087206061686072;48.5926;-5.0020;-11.2362;
5087206071686072;48.6536;-4.8434;-11.2850;
5087206081686072;48.5804;-4.6848;-11.1996;
5087206091686072;48.4340;-4.4896;-10.9800;
5087206101686072;48.4584;-4.3676;-10.9800;
5087206111686072;48.5682;-4.2212;-11.1508;
5087206121686072;48.5682;-4.0626;-11.1264;
5087206131686072;48.3852;-3.9162;-10.8702;
5087206141686072;48.2754;-3.7698;-10.7238;
5087206151686072;48.2632;-3.6966;-10.7116;
5087206161686072;48.2022;-3.5868;-10.6018;
5087206171686072;48.3608;-3.5258;-10.6872;
5087206181686072;48.3608;-3.4526;-10.7726;
5087206191686072;48.2022;-3.4526;-10.6506;
5087206201686072;48.2144;-3.4160;-10.6140;
5087206211686072;48.2266;-3.3794;-10.5286;
5087206221686072;48.1290;-3.3916;-10.4432;
5087206231686072;47.9460;-3.3916;-10.2236;
5087206241686072;47.9460;-3.4160;-10.1992;
5087206251686072;47.8240;-3.4648;-10.1382;
5087206261686072;47.7752;-3.4648;-9.9918;
5087206271686072;47.7630;-3.5014;-9.9430;
5087206281686072;47.6044;-3.5624;-9.7966;
5087206291686072;47.5678;-3.6356;-9.8576;
5087206301686072;47.5922;-3.6844;-9.9186;
5087206311686072;47.6288;-3.7210;-10.1016;
5087206321686072;47.5800;-3.7820;-10.1748;
5087206331686072;47.4702;-3.8186;-10.0528;
5087206341686072;47.4336;-3.9040;-10.1016;
5087206351686072;47.3726;-3.9528;-10.0406;
5087206361686072;47.3604;-3.9650;-10.0284;
5087206371686072;47.2750;-4.0016;-9.9552;
5087206381686072;47.1652;-4.0626;-9.8088;
5087206391686072;47.1286;-4.1358;-9.6380;
5087206401686072;47.1652;-4.1846;-9.6136;
5087206411686072;47.4580;-4.2456;-9.9674;
5087206421686072;47.7020;-4.2700;-10.1870;
5087206431686072;47.8606;-4.3066;-10.3822;
5087206441686072;47.9582;-4.3310;-10.5164;
5087206451686072;48.0680;-4.4164;-10.6872;
5087206461686072;48.2754;-4.4164;-11.0532;
5087206471686072;48.4462;-4.4164;-11.2972;
5087206481686072;48.5438;-4.4286;-11.4436;
5087206491686072;48.4462;-4.4896;-11.4192;
5087206501686072;48.2998;-4.5018;-11.2850;
5087206511686072;48.2632;-4.5140;-11.2728;
5087206521686072;48.2998;-4.5994;-11.3216;
5087206531686072;48.2388;-4.6482;-11.2728;
5087206541686072;48.1900;-4.7580;-11.1752;
5087206551686072;48.2022;-4.8434;-11.1264;
5087206561686072;48.1168;-4.9044;-10.9678;
5087206571686072;48.0436;-4.9532;-10.7848;
5087206581686072;47.9216;-5.0508;-10.5408;
5087206591686072;47.8606;-5.1728;-10.3944;
5087206601686072;47.7874;-5.2582;-10.1870;
5087206611686072;47.7996;-5.3436;-10.0650;
5087206621686072;47.7508;-5.4290;-9.8576;
5087206631686072;47.5922;-5.5144;-9.6136;
5087206641686072;47.5190;-5.5998;-9.5038;
5087206651686072;47.5800;-5.7096;-9.5038;
5087206661686072;47.7386;-5.8072;-9.6380;
5087206671686072;47.8728;-5.8682;-9.7112;
5087206681686072;47.9704;-5.9414;-9.8088;
5087206691686072;48.0680;-6.0024;-9.8942;
5087206701686072;48.1290;-6.0390;-9.9064;
5087206711686072;48.2144;-6.1488;-9.9308;
5087206721686072;48.3486;-6.2586;-10.0162;
5087206731686072;48.2632;-6.3562;-9.8820;
5087206741686072;48.2144;-6.4294;-9.7478;
5087206751686072;48.1046;-6.5026;-9.5892;
5087206761686072;48.0070;-6.6246;-9.4062;
5087206771686072;47.8118;-6.7344;-9.1622;
5087206781686072;47.6166;-6.8564;-8.9304;
5087206791686072;47.5190;-6.9296;-8.8694;
5087206801686072;47.3848;-7.0028;-8.6742;
5087206811686072;47.3848;-7.0638;-8.6742;
5087206821686072;47.3360;-7.1614;-8.8206;
5087206831686072;47.3238;-7.2468;-8.9426;
5087206841686072;47.2506;-7.2712;-8.9914;
5087206851686072;47.2140;-7.2834;-9.0768;
5087206861686072;47.1774;-7.3566;-9.0402;
5087206871686072;46.9822;-7.3932;-8.8572;
5087206881686072;46.8724;-7.3932;-8.8084;
5087206891686072;46.7138;-7.4176;-8.6742;
5087206901686072;46.5918;-7.3688;-8.4058;
5087206911686072;46.4332;-7.3688;-8.1008;
5087206921686072;46.3478;-7.4054;-7.9178;
5087206931686072;46.4332;-7.4420;-7.9300;
5087206941686072;46.5430;-7.4298;-8.0398;
5087206951686072;46.7260;-7.4054;-8.2838;
5087206961686072;46.8480;-7.4298;-8.4424;
5087206971686072;46.9578;-7.4298;-8.5278;
5087206981686072;46.9944;-7.4664;-8.6498;
5087206991686072;47.2994;-7.4786;-9.0036;
5087207001686072;47.5068;-7.4542;-9.3696;
5087207011686072;47.6654;-7.4054;-9.5770;
5087207021686072;47.7752;-7.3566;-9.7478;
5087207031686072;47.9216;-7.3444;-9.9796;
5087207041686072;48.0680;-7.3200;-10.1870;
5087207051686072;48.1900;-7.2590;-10.3822;
5087207061686072;48.3974;-7.2346;-10.6384;
5087207071686072;48.3242;-7.1736;-10.5286;
5087207081686072;48.3242;-7.1492;-10.4798;
5087207091686072;48.2632;-7.1980;-10.4066;
5087207101686072;48.2022;-7.2346;-10.2846;
5087207111686072;48.2022;-7.1858;-10.1870;
5087207121686072;48.1046;-7.1492;-9.9918;
5087207131686072;48.0558;-7.1858;-9.9064;
5087207141686072;47.9704;-7.1858;-9.7356;
5087207151686072;47.8972;-7.2102;-9.6990;
5087207161686072;47.8484;-7.1614;-9.6868;
5087207171686072;48.0070;-7.1004;-9.7966;
5087207181686072;48.1046;-7.0394;-10.0406;
5087207191686072;48.0924;-6.9906;-10.0040;
5087207201686072;48.2022;-6.9784;-10.1870;
5087207211686072;48.2754;-6.9296;-10.3212;
5087207221686072;48.4462;-6.9052;-10.5408;
5087207231686072;48.5560;-6.8076;-10.6628;
5087207241686072;48.6170;-6.7832;-10.6872;
5087207251686072;48.5560;-6.7344;-10.6750;
5087207261686072;48.5926;-6.6490;-10.6872;
5087207271686072;48.6780;-6.6124;-10.7604;
5087207281686072;48.6292;-6.5758;-10.6750;
5087207291686072;48.6414;-6.4782;-10.5530;
5087207301686072;48.5438;-6.3806;-10.3944;
5087207311686072;48.4462;-6.3440;-10.2846;
5087207321686072;48.3852;-6.2708;-10.1016;
5087207331686072;48.2266;-6.1976;-9.8698;
5087207341686072;47.9826;-6.1854;-9.5038;
5087207351686072;47.8240;-6.1122;-9.2964;
5087207361686072;47.7264;-6.0634;-9.1256;
5087207371686072;47.5556;-6.0268;-8.8572;
5087207381686072;47.4580;-5.9902;-8.7108;
5087207391686072;47.4824;-5.9292;-8.7474;
5087207401686072;47.5190;-5.9170;-8.8450;
5087207411686072;47.5434;-5.9048;-8.8450;
5087207421686072;47.7264;-5.8926;-9.1012;
5087207431686072;47.7752;-5.9414;-9.1500;
5087207441686072;47.8118;-5.9170;-9.2842;
5087207451686072;47.9704;-5.9292;-9.6014;
5087207461686072;47.9948;-5.9048;-9.7112;
5087207471686072;48.0070;-5.9536;-9.6746;
5087207481686072;48.0192;-5.9414;-9.6990;
5087207491686072;48.0680;-5.9780;-9.7722;
5087207501686072;48.0558;-6.0268;-9.6868;
5087207511686072;47.9948;-6.0512;-9.6136;
5087207521686072;47.8972;-6.1244;-9.3696;
5087207531686072;47.7996;-6.2220;-9.2842;
5087207541686072;47.7996;-6.2952;-9.2110;
5087207551686072;47.7508;-6.3562;-9.0890;
5087207561686072;47.6532;-6.4294;-8.9792;
5087207571686072;47.7142;-6.4294;-9.0158;
5087207581686072;47.6654;-6.4538;-8.9914;
5087207591686072;47.7020;-6.5148;-9.0402;
5087207601686072;47.8362;-6.5514;-9.2598;
5087207611686072;47.8972;-6.5392;-9.1500;
5087207621686072;47.9338;-6.5880;-9.1012;
5087207631686072;48.0436;-6.6246;-9.2842;
5087207641686072;48.3242;-6.6856;-9.5404;
5087207651686072;48.4828;-6.7588;-9.7112;
5087207661686072;48.6536;-6.7832;-9.8454;
5087207671686072;48.8366;-6.8198;-9.9064;
5087207681686072;48.8732;-6.8564;-9.8454;
5087207691686072;48.9342;-6.9052;-9.7966;
5087207701686072;48.9708;-7.0028;-9.7478;
5087207711686072;48.9586;-7.0516;-9.6014;
5087207721686072;48.9098;-7.0394;-9.4672;
5087207731686072;48.8732;-7.0882;-9.3208;
5087207741686072;48.8732;-7.1736;-9.2476;
5087207751686072;48.7390;-7.2102;-9.1744;
5087207761686072;48.7390;-7.2834;-9.1134;
5087207771686072;48.7512;-7.3322;-9.0524;
5087207781686072;48.7390;-7.3566;-9.0402;
5087207791686072;48.7634;-7.4176;-8.8938;
5087207801686072;48.7268;-7.4542;-8.7474;
5087207811686072;48.6292;-7.5030;-8.5278;
5087207821686072;48.4584;-7.5030;-8.2228;
5087207831686072;48.2632;-7.5274;-7.9422;
5087207841686072;48.2022;-7.5640;-7.8446;
5087207851686072;48.0436;-7.6250;-7.7470;
5087207861686072;48.0436;-7.6372;-7.7958;
5087207871686072;48.1290;-7.6372;-7.9544;
5087207881686072;48.1412;-7.6982;-8.0276;
5087207891686072;48.1778;-7.7104;-8.1618;
5087207901686072;48.1412;-7.7714;-8.2228;
5087207911686072;48.2022;-7.8324;-8.4302;
5087207921686072;48.2510;-7.8446;-8.5156;
5087207931686072;48.1900;-7.8568;-8.6376;
5087207941686072;48.2144;-7.9178;-8.6376;
5087207951686072;48.0192;-7.9666;-8.5400;
5087207961686072;47.7752;-8.0154;-8.4180;
5087207971686072;47.7386;-8.0520;-8.4180;
5087207981686072;47.8240;-8.0886;-8.6254;
5087207991686072;47.8728;-8.0886;-8.5766;
5087208001686072;47.6898;-8.0642;-8.4058;
5087208011686072;47.5312;-8.0276;-8.0886;
5087208021686072;47.3848;-7.9544;-7.8812;
5087208031686072;47.2750;-7.9056;-7.7836;
5087208041686072;47.3604;-7.8568;-7.8446;
5087208051686072;47.3970;-7.7714;-7.7958;
5087208061686072;47.4092;-7.7104;-7.7714;
5087208071686072;47.6410;-7.5884;-7.9178;
5087208081686072;47.8728;-7.5274;-8.1618;
5087208091686072;48.2388;-7.4908;-8.6132;
5087208101686072;48.5804;-7.3932;-8.9548;
5087208111686072;48.7512;-7.3078;-9.1012;
5087208121686072;48.8976;-7.1980;-9.0402;
5087208131686072;48.9464;-7.1370;-9.1744;
5087208141686072;49.0562;-7.0150;-9.2110;
5087208151686072;49.0684;-6.9296;-9.2354;
5087208161686072;49.1660;-6.8076;-9.1622;
5087208171686072;49.2514;-6.6856;-9.0768;
5087208181686072;49.1416;-6.6124;-8.7840;
5087208191686072;49.1782;-6.4904;-8.6132;
5087208201686072;49.1782;-6.4172;-8.4790;
5087208211686072;49.0562;-6.3562;-8.0032;
5087208221686072;48.9586;-6.2586;-7.6250;
5087208231686072;48.8976;-6.2098;-7.3810;
5087208241686072;48.7390;-6.1610;-7.1614;
5087208251686072;48.5438;-6.0878;-6.8442;
5087208261686072;48.4706;-6.0268;-6.8320;
5087208271686072;48.4218;-5.9658;-6.7588;
5087208281686072;48.4950;-5.8804;-6.9052;
5087208291686072;48.6048;-5.7462;-7.1370;
5087208301686072;48.8488;-5.6120;-7.4054;
5087208311686072;48.9708;-5.4778;-7.6494;
5087208321686072;49.1782;-5.3680;-7.9178;
5087208331686072;49.3978;-5.2216;-8.1862;
5087208341686072;49.5808;-5.0264;-8.3082;
5087208351686072;49.7760;-4.8678;-8.4180;
5087208361686072;49.9346;-4.6726;-8.4180;
5087208371686072;50.0200;-4.5018;-8.4546;
5087208381686072;49.8858;-4.3554;-8.2838;
5087208391686072;49.7760;-4.1724;-8.0886;
5087208401686072;49.6662;-3.9772;-7.8324;
5087208411686072;49.5930;-3.7942;-7.6982;
5087208421686072;49.6052;-3.6112;-7.6982;
5087208431686072;49.5564;-3.4282;-7.7226;
5087208441686072;49.5076;-3.2208;-7.6738;
5087208451686072;49.4344;-3.0744;-7.6494;
5087208461686072;49.4954;-2.8914;-7.7104;
5087208471686072;49.3734;-2.6474;-7.5030;
5087208481686072;49.3246;-2.4522;-7.4176;
5087208491686072;49.3490;-2.2204;-7.4176;
5087208501686072;49.2270;-2.0130;-7.3078;
5087208511686072;49.2148;-1.7812;-7.2834;
5087208521686072;49.0928;-1.5616;-7.2346;
5087208531686072;49.0806;-1.3542;-7.1858;
5087208541686072;49.0196;-1.1102;-7.1126;
5087208551686072;49.0440;-0.9516;-7.3444;
5087208561686072;49.0196;-0.7930;-7.4908;
5087208571686072;48.8488;-0.6588;-7.3932;
5087208581686072;48.7146;-0.5490;-7.3444;
5087208591686072;48.5072;-0.4392;-7.2712;
5087208601686072;48.3608;-0.4148;-7.1858;
5087208611686072;48.2022;-0.2928;-7.1370;
5087208621686072;48.1778;-0.2440;-7.2346;
5087208631686072;48.0558;-0.1586;-7.1370;
5087208641686072;48.1168;-0.0854;-7.1980;
5087208651686072;48.3242;0.0122;-7.4908;
5087208661686072;48.4340;0.0732;-7.6860;
5087208671686072;48.6170;0.1098;-7.9056;
5087208681686072;48.8000;0.1830;-8.2228;
5087208691686072;48.9830;0.2196;-8.5400;
5087208701686072;49.1904;0.2684;-8.9060;
5087208711686072;49.4588;0.2562;-9.3086;
5087208721686072;49.5442;0.2318;-9.5160;
5087208731686072;49.4100;0.1342;-9.5282;
5087208741686072;49.3612;0.1220;-9.5038;
5087208751686072;49.3124;0.0854;-9.4794;
5087208761686072;49.1782;0.0732;-9.3574;
5087208771686072;49.1538;0.0488;-9.2842;
5087208781686072;48.9586;0.0000;-9.0768;
5087208791686072;48.9586;0.0000;-9.0036;
5087208801686072;48.8854;0.0122;-8.9060;
5087208811686072;48.9342;0.0366;-8.9548;
5087208821686072;48.9830;0.0122;-9.0402;
5087208831686072;48.9830;0.0488;-9.1012;
5087208841686072;48.9830;0.0854;-9.2354;
5087208851686072;48.9342;0.0244;-9.3208;
5087208861686072;48.8366;0.0000;-9.2598;
5087208871686072;48.7634;-0.0122;-9.2354;
5087208881686072;48.6658;-0.0122;-9.1866;
5087208891686072;48.5804;-0.0366;-9.1012;
5087208901686072;48.5316;-0.0244;-9.0402;
5087208911686072;48.5194;-0.0610;-9.0524;
5087208921686072;48.6414;-0.0854;-9.0768;
5087208931686072;48.6902;-0.0488;-9.1378;
5087208941686072;48.8122;-0.0366;-9.3208;
5087208951686072;48.8854;-0.0122;-9.4672;
5087208961686072;48.9220;-0.0244;-9.5404;
5087208971686072;48.8976;0.0366;-9.6136;
5087208981686072;48.8854;0.0366;-9.6868;
5087208991686072;48.7878;0.0366;-9.5892;
5087209001686072;48.7024;0.0732;-9.5038;
5087209011686072;48.6048;0.0732;-9.3208;
5087209021686072;48.5682;0.0976;-9.1988;
5087209031686072;48.4828;0.0732;-9.1500;
5087209041686072;48.4462;0.0610;-9.1744;
5087209051686072;48.5316;0.0366;-9.2232;
5087209061686072;48.4828;0.0244;-9.3086;
5087209071686072;48.4584;0.0366;-9.3696;
5087209081686072;48.3486;-0.0610;-9.3208;
5087209091686072;48.2876;-0.1220;-9.3696;
5087209101686072;48.1778;-0.2074;-9.3696;
5087209111686072;48.0070;-0.2562;-9.1744;
5087209121686072;47.9704;-0.2806;-9.1134;
5087209131686072;47.8484;-0.3294;-9.0768;
5087209141686072;47.7020;-0.4148;-8.8694;
5087209151686072;47.6654;-0.4880;-8.8328;
5087209161686072;47.7142;-0.5002;-8.9426;
5087209171686072;47.5434;-0.5490;-8.7474;
5087209181686072;47.3482;-1.5250;-8.9914;
5087209191686072;47.2384;-1.6226;-8.8572;
5087209201686072;47.1896;-1.7446;-8.8450;
5087209211686072;47.1530;-1.8544;-8.7596;
5087209221686072;47.2506;-1.9032;-8.8450;
5087209231686072;47.4214;-2.0496;-9.0158;
5087209241686072;47.3848;-2.1472;-8.9426;
5087209251686072;47.5556;-2.2570;-9.1622;
5087209261686072;47.7630;-2.3302;-9.3940;
5087209271686072;47.9094;-2.3790;-9.5282;
5087209281686072;47.9338;-2.4400;-9.5770;
5087209291686072;48.0070;-2.4766;-9.6990;
5087209301686072;48.0314;-2.5620;-9.7600;
5087209311686072;48.0070;-2.6230;-9.7478;
5087209321686072;48.1656;-2.6474;-9.8698;
5087209331686072;48.2388;-2.6718;-9.9796;
5087209341686072;48.2754;-2.7572;-9.9796;
5087209351686072;48.2754;-2.8426;-10.0772;
5087209361686072;48.3242;-2.9280;-10.0284;
5087209371686072;48.3364;-2.9524;-9.9186;
5087209381686072;48.2754;-2.9768;-9.7966;
5087209391686072;48.3242;-2.9768;-9.8210;
5087209401686072;48.3730;-2.9768;-9.9552;
5087209411686072;48.4218;-2.9402;-9.9430;
5087209421686072;48.4584;-2.8670;-9.9430;
5087209431686072;48.4340;-2.8426;-9.8210;
5087209441686072;48.4462;-2.7328;-9.7722;
5087209451686072;48.2998;-2.7328;-9.5770;
5087209461686072;48.3120;-2.7328;-9.5038;
5087209471686072;48.1412;-2.6840;-9.2232;
5087209481686072;47.9338;-2.6596;-8.9182;
5087209491686072;47.8240;-2.6352;-8.7840;
5087209501686072;47.6898;-2.6108;-8.6376;
5087209511686072;47.7508;-2.5254;-8.6620;
5087209521686072;47.8240;-2.4766;-8.7474;
5087209531686072;47.9826;-2.4156;-8.9792;
5087209541686072;48.0558;-2.3546;-9.0890;
5087209551686072;48.0558;-2.2570;-9.0158;
5087209561686072;47.8850;-2.1960;-8.7962;
5087209571686072;47.7874;-2.1472;-8.5400;
5087209581686072;47.7142;-2.0862;-8.4302;
5087209591686072;47.6654;-2.0008;-8.3936;
5087209601686072;47.5190;-1.9398;-8.1984;
5087209611686072;47.3970;-1.8178;-7.9910;
5087209621686072;47.2262;-1.7080;-7.7470;
5087209631686072;47.2140;-1.6592;-7.7958;
5087209641686072;47.4092;-1.5982;-8.0032;
5087209651686072;47.6776;-1.5250;-8.2960;
5087209661686072;47.9338;-1.4030;-8.6376;
5087209671686072;48.0314;-1.4152;-8.6742;
5087209681686072;48.2388;-1.3664;-8.9426;
5087209691686072;48.5682;-1.3176;-9.3818;
5087209701686072;48.8854;-1.2688;-9.8454;
5087209711686072;49.4222;-1.2322;-10.5164;
5087209721686072;49.5808;-1.1590;-10.7726;
5087209731686072;49.5320;-1.0980;-10.9190;
5087209741686072;49.4954;-1.0736;-10.8824;
5087209751686072;49.5564;-0.9882;-11.0776;
5087209761686072;49.5686;-0.9394;-11.1508;
5087209771686072;49.3978;-0.9882;-11.0044;
5087209781686072;49.4344;-0.9394;-11.0166;
5087209791686072;49.1172;-0.8906;-10.6140;
5087209801686072;49.0318;-0.8662;-10.5042;
5087209811686072;49.0562;-0.8540;-10.4920;
5087209821686072;49.0684;-0.8540;-10.4676;
5087209831686072;49.0562;-0.8662;-10.4066;
5087209841686072;48.8976;-0.7930;-10.2968;
5087209851686072;48.8732;-0.7198;-10.3212;
5087209861686072;48.7634;-0.6954;-10.2968;
5087209871686072;48.6780;-0.6222;-10.2846;
5087209881686072;48.7146;-0.5856;-10.3090;
5087209891686072;48.7146;-0.5124;-10.2602;
5087209901686072;48.6536;-0.4514;-10.2236;
5087209911686072;48.5560;-0.4026;-10.0650;
5087209921686072;48.5560;-0.3660;-9.9186;
5087209931686072;48.5194;-0.2684;-9.7722;
5087209941686072;48.4584;-0.1708;-9.6014;
5087209951686072;48.4462;-0.1098;-9.5282;
5087209961686072;48.3608;-0.0122;-9.3696;
5087209971686072;48.1778;0.0366;-9.1988;
5087209981686072;48.0680;0.1342;-9.0646;
5087209991686072;47.9216;0.2562;-9.0158;
5087210001686072;47.9582;0.3538;-9.1256;
5087210011686072;47.9338;0.4026;-9.1744;
5087210021686072;47.8972;0.4514;-9.1744;
5087210031686072;47.8728;0.5246;-9.2354;
5087210041686072;47.8728;0.5368;-9.3086;
5087210051686072;47.8850;0.6100;-9.2964;
5087210061686072;47.9460;0.6100;-9.3696;
5087210071686072;47.8972;0.6466;-9.2354;
5087210081686072;47.6776;0.6466;-8.9792;
5087210091686072;47.5312;0.6588;-8.7840;
5087210101686072;47.3604;0.6344;-8.5888;
5087210111686072;47.3726;0.6100;-8.5766;
5087210121686072;47.3238;0.6222;-8.5644;
5087210131686072;47.4214;0.5368;-8.7108;
5087210141686072;47.4580;0.5124;-8.7352;
5087210151686072;47.6288;0.4148;-8.9670;
5087210161686072;47.6532;0.3416;-8.9670;
5087210171686072;47.7508;0.2318;-9.0280;
5087210181686072;47.7020;0.1098;-8.9426;
5087210191686072;47.6654;-0.0122;-8.8084;
5087210201686072;47.6532;-0.1952;-8.7840;
5087210211686072;47.5800;-0.2562;-8.6986;
5087210221686072;47.4458;-0.4270;-8.6498;
5087210231686072;47.3116;-0.5978;-8.5644;
5087210241686072;47.4214;-0.7808;-8.6864;
5087210251686072;47.4336;-0.9394;-8.7840;
5087210261686072;47.6410;-1.0126;-9.0768;
5087210271686072;47.7142;-1.1346;-9.2476;
5087210281686072;47.7874;-1.1834;-9.3940;
5087210291686072;48.0436;-1.2566;-9.6502;
5087210301686072;48.2510;-1.3176;-9.9064;
5087210311686072;48.4584;-1.3542;-10.1748;
5087210321686072;48.6048;-1.3664;-10.3334;
5087210331686072;48.6902;-1.4396;-10.4920;
5087210341686072;48.6902;-1.5006;-10.4798;
5087210351686072;48.6170;-1.5494;-10.3456;
5087210361686072;48.5194;-1.6226;-10.2358;
5087210371686072;48.2022;-1.7324;-9.8942;
5087210381686072;48.0314;-1.8178;-9.5892;
5087210391686072;47.8850;-1.8788;-9.3086;
5087210401686072;47.7752;-1.9154;-9.1256;
5087210411686072;47.6776;-1.9642;-8.9060;
5087210421686072;47.6898;-2.0374;-8.7596;
5087210431686072;47.6044;-2.0740;-8.6864;
5087210441686072;47.6776;-2.0984;-8.6498;
5087210451686072;47.7142;-2.1350;-8.6498;
5087210461686072;47.6654;-2.1838;-8.6132;
5087210471686072;47.6532;-2.1960;-8.5644;
5087210481686072;47.7386;-2.2692;-8.6498;
5087210491686072;47.7874;-2.2448;-8.6742;
5087210501686072;47.7264;-2.2204;-8.6620;
5087210511686072;47.8118;-2.2448;-8.7108;
5087210521686072;47.8606;-2.2692;-8.8450;
5087210531686072;47.9094;-2.2082;-8.9182;
5087210541686072;47.9704;-2.1106;-9.0646;
5087210551686072;47.9826;-2.0618;-9.1134;
5087210561686072;47.8484;-2.0130;-9.0646;
5087210571686072;47.6044;-2.0130;-8.8938;
5087210581686072;47.5312;-1.9520;-8.9182;
5087210591686072;47.4458;-1.8910;-8.8328;
5087210601686072;47.2384;-1.8056;-8.5888;
5087210611686072;47.1530;-1.7812;-8.4912;
5087210621686072;47.1652;-1.7690;-8.4790;
5087210631686072;47.1774;-1.7202;-8.5644;
5087210641686072;47.1896;-1.6226;-8.6010;
5087210651686072;47.3238;-1.5128;-8.7840;
5087210661686072;47.3360;-1.5006;-8.8572;
5087210671686072;47.3238;-1.4396;-9.0036;
5087210681686072;47.3726;-1.4396;-9.0768;
5087210691686072;47.4336;-1.4152;-9.1378;
5087210701686072;47.3970;-1.3054;-9.1988;
5087210711686072;47.4214;-1.2810;-9.1988;
5087210721686072;47.4214;-1.2932;-9.2476;
5087210731686072;47.4214;-1.2932;-9.2354;
5087210741686072;47.3604;-1.2566;-9.1744;
5087210751686072;47.3482;-1.2810;-9.0890;
5087210761686072;47.3116;-1.2322;-9.1256;
5087210771686072;47.2018;-1.2444;-9.1134;
5087210781686072;46.8114;-1.3176;-8.6620;
5087210791686072;46.6894;-1.2932;-8.5888;
5087210801686072;46.7016;-1.2688;-8.6010;
5087210811686072;46.6528;-1.3176;-8.5278;
5087210821686072;46.6162;-1.3176;-8.6010;
5087210831686072;46.5430;-1.2566;-8.6986;
5087210841686072;46.5430;-1.2322;-8.7596;
5087210851686072;46.5674;-1.2688;-8.8694;
5087210861686072;46.9456;-1.2810;-9.3818;
5087210871686072;47.0920;-1.3054;-9.6502;
5087210881686072;47.1286;-1.2688;-9.7844;
5087210891686072;47.2628;-1.2322;-9.9552;
5087210901686072;47.4336;-1.2566;-10.0772;
5087210911686072;47.5068;-1.3420;-10.0162;
5087210921686072;47.5312;-1.3420;-9.9552;
5087210931686072;47.5556;-1.3054;-9.9064;
5087210941686072;47.4580;-1.2688;-9.7112;
5087210951686072;47.2872;-1.2810;-9.4672;
5087210961686072;47.2018;-1.3542;-9.3086;
5087210971686072;47.1164;-1.3908;-9.1744;
5087210981686072;47.0676;-1.3908;-9.1012;
5087210991686072;47.0798;-1.4396;-9.1378;
5087211001686072;47.1408;-1.5128;-9.2110;
5087211011686072;47.2140;-1.5128;-9.3574;
5087211021686072;47.4214;-1.5494;-9.6624;
5087211031686072;47.6166;-1.5738;-9.8210;
5087211041686072;47.7142;-1.5982;-10.0040;
5087211051686072;47.8606;-1.5982;-10.1748;
5087211061686072;47.8728;-1.6104;-10.1504;
5087211071686072;47.8728;-1.5616;-10.1748;
5087211081686072;47.8728;-1.5982;-10.1870;
5087211091686072;48.0192;-1.6226;-10.2846;
5087211101686072;47.9460;-1.6226;-10.1626;
5087211111686072;47.8850;-1.5982;-10.1138;
5087211121686072;47.9094;-1.5982;-10.0162;
5087211131686072;47.8606;-1.5738;-10.0772;
5087211141686072;47.9948;-1.5494;-10.1748;
5087211151686072;48.1778;-1.5250;-10.2602;
5087211161686072;48.3730;-1.4640;-10.4188;
5087211171686072;48.5194;-1.4274;-10.4676;
5087211181686072;48.5682;-1.4152;-10.5042;
5087211191686072;48.6536;-1.4396;-10.4432;
5087211201686072;48.6658;-1.4762;-10.4188;
5087211211686072;48.6048;-1.5250;-10.1870;
5087211221686072;48.4706;-1.5738;-10.0162;
5087211231686072;48.2510;-1.6470;-9.7478;
5087211241686072;47.9826;-1.7568;-9.3208;
5087211251686072;47.6410;-1.8544;-8.8572;
5087211261686072;47.4946;-1.9276;-8.6132;
5087211271686072;47.5312;-2.0130;-8.6986;
5087211281686072;47.5068;-2.0130;-8.6254;
5087211291686072;47.5312;-2.0984;-8.6742;
5087211301686072;47.6288;-2.2082;-8.7840;
5087211311686072;47.7508;-2.2814;-9.0036;
5087211321686072;47.8972;-2.3058;-9.2476;
5087211331686072;47.9216;-2.3180;-9.4550;
5087211341686072;48.0558;-2.4156;-9.7112;
5087211351686072;47.9826;-2.4766;-9.6746;
5087211361686072;48.0314;-2.5864;-9.8698;
5087211371686072;48.1046;-2.6352;-10.0162;
5087211381686072;48.2754;-2.6718;-10.3090;
5087211391686072;48.4584;-2.7450;-10.5774;
5087211401686072;48.6414;-2.8304;-10.8336;
5087211411686072;48.8610;-2.8914;-11.1508;
5087211421686072;48.9708;-2.9158;-11.2362;
5087211431686072;49.1538;-2.9402;-11.4802;
5087211441686072;49.1782;-2.9402;-11.5412;
5087211451686072;49.2514;-2.9646;-11.6876;
5087211461686072;49.1904;-2.9768;-11.6388;
5087211471686072;49.1172;-2.9890;-11.5534;
5087211481686072;49.1416;-2.9524;-11.5900;
5087211491686072;49.0562;-2.9402;-11.5168;
5087211501686072;49.0196;-2.9402;-11.4924;
5087211511686072;48.9342;-2.9280;-11.4436;
5087211521686072;48.9098;-2.9402;-11.4680;
5087211531686072;48.9586;-2.9158;-11.5168;
5087211541686072;48.9830;-2.9158;-11.5534;
5087211551686072;49.0074;-2.8914;-11.6266;
5087211561686072;48.8976;-2.8914;-11.5656;
5087211571686072;48.8122;-2.9036;-11.4558;
5087211581686072;48.6658;-2.8914;-11.3338;
5087211591686072;48.6414;-2.8426;-11.3216;
5087211601686072;48.6048;-2.8426;-11.2118;
5087211611686072;48.4706;-2.8304;-11.0166;
5087211621686072;48.2754;-2.7938;-10.8458;
5087211631686072;48.0680;-2.7694;-10.6262;
5087211641686072;47.9704;-2.7694;-10.4798;
5087211651686072;47.9094;-2.7450;-10.4920;
5087211661686072;48.0558;-2.6474;-10.6506;
5087211671686072;48.0070;-2.6474;-10.5164;
5087211681686072;47.9704;-2.5620;-10.5652;
5087211691686072;48.0558;-2.5010;-10.6140;
5087211701686072;48.1656;-2.4278;-10.7726;
5087211711686072;48.2998;-2.3424;-10.9190;
5087211721686072;48.2754;-2.2692;-10.9434;
5087211731686072;48.3120;-2.2326;-10.9922;
5087211741686072;48.1656;-2.2570;-10.8824;
5087211751686072;48.0558;-2.1960;-10.8946;
5087211761686072;48.0070;-2.1594;-10.8580;
5087211771686072;47.8850;-2.1838;-10.7970;
5087211781686072;47.7630;-2.1838;-10.6506;
5087211791686072;47.8362;-2.1472;-10.6384;
5087211801686072;47.8118;-2.1838;-10.6384;
5087211811686072;47.7508;-2.1594;-10.5164;
5087211821686072;47.7752;-2.1594;-10.4676;
5087211831686072;47.8850;-2.1838;-10.5408;
5087211841686072;47.9216;-2.1838;-10.5286;
5087211851686072;47.9338;-2.1594;-10.5652;
5087211861686072;47.9216;-2.1594;-10.5286;
5087211871686072;47.7630;-2.1838;-10.3944;
5087211881686072;47.7630;-2.1106;-10.3578;
5087211891686072;47.7874;-2.1472;-10.3212;
5087211901686072;47.8118;-2.0740;-10.3090;
5087211911686072;47.7752;-2.0618;-10.2968;
5087211921686072;47.7386;-2.0374;-10.2358;
5087211931686072;47.7142;-2.0130;-10.2236;
5087211941686072;47.8118;-1.9520;-10.3212;
5087211951686072;47.9216;-1.9154;-10.4188;
5087211961686072;47.9216;-1.9154;-10.4676;
5087211971686072;47.9948;-1.8178;-10.5652;
5087211981686072;47.9460;-1.8666;-10.5896;
5087211991686072;47.9826;-1.8300;-10.6140;
5087212001686072;48.0680;-1.8300;-10.6262;
5087212011686072;48.1656;-1.8544;-10.6750;
5087212021686072;48.1412;-1.9032;-10.5408;
5087212031686072;48.0802;-1.9154;-10.5530;
5087212041686072;48.2144;-1.9154;-10.6872;
5087212051686072;48.2510;-1.9276;-10.6994;
5087212061686072;48.3364;-1.8910;-10.7970;
5087212071686072;48.3364;-1.9276;-10.6994;
5087212081686072;48.2998;-1.9398;-10.7116;
5087212091686072;48.3608;-1.9520;-10.8092;
5087212101686072;48.4340;-1.9398;-10.9922;
5087212111686072;48.4218;-1.9398;-10.9556;
5087212121686072;48.3608;-1.9764;-10.8824;
5087212131686072;48.2998;-2.0130;-10.8702;
5087212141686072;48.3364;-2.0252;-10.9800;
5087212151686072;48.3608;-2.0252;-11.1142;
5087212161686072;48.3730;-2.0374;-11.2850;
5087212171686072;48.3242;-2.0130;-11.2362;
5087212181686072;48.2266;-1.9764;-11.0776;
5087212191686072;48.1412;-1.9398;-10.9190;
5087212201686072;47.9826;-1.9032;-10.6994;
5087212211686072;47.8972;-1.8788;-10.5164;
5087212221686072;47.7874;-1.9032;-10.3700;
5087212231686072;47.7630;-1.8544;-10.3212;
5087212241686072;47.7020;-1.7934;-10.1504;
5087212251686072;47.6166;-1.7690;-10.0406;
5087212261686072;47.5556;-1.7934;-10.0162;
5087212271686072;47.5678;-1.8300;-10.0650;
5087212281686072;47.7020;-1.8422;-10.2358;
5087212291686072;47.7142;-1.8422;-10.2236;
5087212301686072;47.7264;-1.8300;-10.0772;
5087212311686072;47.5556;-1.8422;-9.8942;
5087212321686072;47.6166;-1.8666;-9.9552;
5087212331686072;47.6044;-1.8544;-9.8820;
5087212341686072;47.7142;-1.8178;-9.9674;
5087212351686072;47.8362;-1.8056;-10.0528;
5087212361686072;47.8118;-1.8178;-9.9552;
5087212371686072;47.9704;-1.7690;-10.1748;
5087212381686072;48.0802;-1.7324;-10.3822;
5087212391686072;48.2632;-1.6348;-10.5042;
5087212401686072;48.3608;-1.6104;-10.5896;
5087212411686072;48.5438;-1.5616;-10.7482;
5087212421686072;48.6780;-1.5006;-10.8336;
5087212431686072;48.6536;-1.4518;-10.8336;
5087212441686072;48.6902;-1.4152;-10.8214;
5087212451686072;48.6414;-1.4274;-10.7604;
5087212461686072;48.5560;-1.3786;-10.7360;
5087212471686072;48.6292;-1.4518;-10.7848;
5087212481686072;48.5438;-1.4640;-10.6628;
5087212491686072;48.4706;-1.5006;-10.6994;
5087212501686072;48.3730;-1.5616;-10.6994;
5087212511686072;48.3974;-1.5860;-10.7970;
5087212521686072;48.4584;-1.5494;-10.9068;
5087212531686072;48.4584;-1.5494;-10.8824;
5087212541686072;48.4950;-1.5738;-10.9190;
5087212551686072;48.4462;-1.5616;-10.9922;
5087212561686072;48.4828;-1.5372;-11.1020;
5087212571686072;48.4950;-1.5494;-11.0898;
5087212581686072;48.4950;-1.5616;-11.1020;
5087212591686072;48.5560;-1.5250;-11.1386;
5087212601686072;48.5560;-1.5616;-11.2850;
5087212611686072;48.6414;-1.5250;-11.4070;
5087212621686072;48.7390;-1.5128;-11.5412;
5087212631686072;48.7512;-1.5006;-11.6022;
5087212641686072;48.7756;-1.5006;-11.5900;
5087212651686072;48.7146;-1.5128;-11.5168;
5087212661686072;48.5926;-1.5372;-11.3460;
5087212671686072;48.3974;-1.5738;-11.0654;
5087212681686072;48.2266;-1.6348;-10.7726;
5087212691686072;48.0436;-1.7446;-10.5286;
5087212701686072;47.7386;-1.7812;-10.0528;
5087212711686072;47.5434;-1.8422;-9.8088;
5087212721686072;47.4824;-1.8666;-9.7234;
5087212731686072;47.3970;-1.9032;-9.6990;
5087212741686072;47.4336;-1.8910;-9.6868;
5087212751686072;47.5190;-1.9276;-9.7722;
5087212761686072;47.5678;-1.9398;-9.8576;
5087212771686072;47.6410;-1.9032;-9.8820;
5087212781686072;47.8240;-1.9398;-10.1748;
5087212791686072;47.9704;-1.9520;-10.1992;
5087212801686072;48.0802;-2.0252;-10.2602;
5087212811686072;48.1412;-2.0496;-10.3090;
5087212821686072;48.2632;-2.0618;-10.4554;
5087212831686072;47.9094;-2.1594;-10.0528;
5087212841686072;47.9094;-2.2204;-10.0650;
5087212851686072;47.8972;-2.3180;-10.2236;
5087212861686072;47.7630;-2.4034;-10.1748;
5087212871686072;47.5556;-2.4644;-10.0528;
5087212881686072;47.2018;-2.5010;-9.7234;
5087212891686072;47.0676;-2.5620;-9.5404;
5087212901686072;46.8358;-2.6962;-9.2354;
5087212911686072;46.9944;-2.6718;-9.5038;
5087212921686072;46.9456;-2.7206;-9.3452;
5087212931686072;46.9334;-2.7694;-9.1744;
5087212941686072;47.1530;-2.7938;-9.3940;
5087212951686072;47.4092;-2.8426;-9.6258;
5087212961686072;47.6532;-2.9158;-9.8576;
5087212971686072;47.7996;-2.9646;-9.9674;
5087212981686072;48.0314;-3.0134;-10.1626;
5087212991686072;48.2632;-3.1110;-10.3700;
5087213001686072;48.4462;-3.1842;-10.5652;
5087213011686072;48.5682;-3.2330;-10.7604;
5087213021686072;48.5438;-3.3428;-10.6628;
5087213031686072;48.5316;-3.4404;-10.6872;
5087213041686072;48.5804;-3.5380;-10.8824;
5087213051686072;48.7024;-3.6112;-11.1142;
5087213061686072;48.6292;-3.6722;-11.1752;
5087213071686072;48.6292;-3.7210;-11.2728;
5087213081686072;48.6048;-3.8186;-11.2728;
5087213091686072;48.6292;-3.9040;-11.3338;
5087213101686072;48.7268;-3.9284;-11.4436;
5087213111686072;48.8122;-3.9406;-11.5412;
5087213121686072;48.7634;-4.0138;-11.4070;
5087213131686072;48.7878;-4.0992;-11.4924;
5087213141686072;48.7878;-4.1724;-11.5534;
5087213151686072;48.8122;-4.2456;-11.4680;
5087213161686072;48.8610;-4.2456;-11.5656;
5087213171686072;48.7024;-4.3310;-11.3582;
5087213181686072;48.5438;-4.4042;-11.1630;
5087213191686072;48.2876;-4.5384;-10.8824;
5087213201686072;48.3120;-4.5872;-10.8702;
5087213211686072;48.1046;-4.6482;-10.5164;
5087213221686072;48.0314;-4.6726;-10.3456;
5087213231686072;47.7752;-4.7580;-10.1138;
5087213241686072;47.5312;-4.8434;-9.7722;
5087213251686072;47.4702;-4.9288;-9.6990;
5087213261686072;47.4092;-4.9654;-9.6868;
5087213271686072;47.3970;-5.0020;-9.6868;
5087213281686072;47.1530;-5.0874;-9.5160;
5087213291686072;47.1774;-5.1240;-9.6136;
5087213301686072;47.1896;-5.1972;-9.6746;
5087213311686072;47.3848;-5.2094;-9.8820;
5087213321686072;47.4824;-5.2460;-10.0284;
5087213331686072;47.5800;-5.2216;-10.2114;
5087213341686072;47.7386;-5.2582;-10.4188;
5087213351686072;47.9216;-5.3070;-10.6872;
5087213361686072;48.0924;-5.2948;-10.8824;
5087213371686072;48.2144;-5.3558;-11.0288;
5087213381686072;48.2998;-5.4168;-11.1752;
5087213391686072;48.4096;-5.4900;-11.3582;
5087213401686072;48.4584;-5.5388;-11.5778;
5087213411686072;48.4218;-5.6120;-11.5290;
5087213421686072;48.2632;-5.6608;-11.3216;
5087213431686072;48.1046;-5.6852;-11.0898;
5087213441686072;48.0436;-5.6974;-10.9922;
5087213451686072;47.8118;-5.7340;-10.6018;
5087213461686072;47.5800;-5.7462;-10.2846;
5087213471686072;47.3970;-5.7584;-10.0040;
5087213481686072;47.2018;-5.7828;-9.6746;
5087213491686072;47.1164;-5.7462;-9.5648;
5087213501686072;47.1896;-5.7462;-9.6746;
5087213511686072;47.3116;-5.7340;-9.8210;
5087213521686072;47.4580;-5.7340;-9.9064;
5087213531686072;47.5678;-5.6974;-10.1748;
5087213541686072;47.7386;-5.6486;-10.3700;
5087213551686072;47.8606;-5.6242;-10.5408;
5087213561686072;48.1168;-5.5632;-10.8824;
5087213571686072;48.3974;-5.5754;-11.1508;
5087213581686072;48.4828;-5.5388;-11.2850;
5087213591686072;48.5560;-5.4900;-11.3582;
5087213601686072;48.6170;-5.4412;-11.5534;
5087213611686072;48.7634;-5.3924;-11.7486;
5087213621686072;48.8610;-5.3436;-11.9316;
5087213631686072;48.9220;-5.2582;-12.0536;
5087213641686072;48.8976;-5.1850;-11.9316;
5087213651686072;48.8732;-5.0752;-11.9194;
5087213661686072;48.8732;-4.9654;-11.9072;
5087213671686072;48.9342;-4.8556;-11.9682;
5087213681686072;48.9342;-4.7336;-11.9560;
5087213691686072;49.0074;-4.6116;-11.9804;
5087213701686072;48.9952;-4.4774;-11.9682;
5087213711686072;48.9830;-4.3676;-11.9682;
5087213721686072;48.9464;-4.2822;-11.9438;
5087213731686072;48.7878;-4.2090;-11.8218;
5087213741686072;48.7268;-4.1114;-11.6876;
5087213751686072;48.6170;-4.0382;-11.5656;
5087213761686072;48.5438;-3.9772;-11.4192;
5087213771686072;48.4462;-3.9040;-11.3216;
5087213781686072;48.3486;-3.8552;-11.1386;
5087213791686072;48.3120;-3.7820;-11.0654;
5087213801686072;48.2998;-3.6966;-11.0654;
5087213811686072;48.2876;-3.6112;-10.9800;
5087213821686072;48.2266;-3.5502;-10.9312;
5087213831686072;48.3486;-3.4648;-11.0532;
5087213841686072;48.3120;-3.4160;-11.0654;
5087213851686072;48.2876;-3.3550;-11.0166;
5087213861686072;48.3364;-3.2696;-11.1508;
5087213871686072;48.2998;-3.2208;-11.1630;
5087213881686072;48.3242;-3.1232;-11.2118;
5087213891686072;48.3608;-3.0134;-11.3094;
5087213901686072;48.4096;-2.9402;-11.2972;
5087213911686072;48.2144;-2.8426;-11.0654;
5087213921686072;48.1290;-2.7206;-10.9556;
5087213931686072;48.0802;-2.5986;-10.8580;
5087213941686072;48.0558;-2.5254;-10.7238;
5087213951686072;48.1168;-2.4400;-10.7116;
5087213961686072;48.1412;-2.3424;-10.6506;
5087213971686072;48.1778;-2.3058;-10.6262;
5087213981686072;48.1778;-2.2814;-10.6140;
5087213991686072;48.3242;-2.2692;-10.6872;
5087214001686072;48.5560;-2.2692;-10.9312;
5087214011686072;48.7634;-2.2204;-11.1752;
5087214021686072;48.9952;-2.1960;-11.3582;
5087214031686072;49.1294;-2.1594;-11.4924;
5087214041686072;49.2148;-2.2082;-11.6022;
5087214051686072;49.3246;-2.1960;-11.8096;
5087214061686072;49.4710;-2.1350;-12.0048;
5087214071686072;49.3002;-2.0862;-11.8706;
5087214081686072;49.0562;-2.0618;-11.6022;
5087214091686072;48.8610;-2.0740;-11.3338;
5087214101686072;48.5682;-2.0496;-11.1630;
5087214111686072;48.3120;-2.0740;-10.8824;
5087214121686072;48.1900;-2.0496;-10.7482;
5087214131686072;48.0436;-2.0252;-10.5652;
5087214141686072;47.9216;-2.0252;-10.5042;
5087214151686072;47.9948;-2.0252;-10.7360;
5087214161686072;48.1046;-2.0374;-10.9556;
5087214171686072;48.2998;-2.0008;-11.1508;
5087214181686072;48.5560;-1.9886;-11.4192;
5087214191686072;48.6902;-1.9520;-11.5412;
5087214201686072;48.6902;-1.9520;-11.5900;
5087214211686072;48.6658;-1.9276;-11.5534;
5087214221686072;48.6414;-1.9398;-11.4680;
5087214231686072;48.6780;-1.9276;-11.3826;
5087214241686072;48.7390;-1.9398;-11.3460;
5087214251686072;48.5926;-1.9764;-11.2484;
5087214261686072;48.3974;-2.0008;-10.9556;
5087214271686072;48.3608;-2.0374;-10.8946;
5087214281686072;48.3730;-2.0618;-10.8702;
5087214291686072;48.4218;-2.0984;-10.8580;
5087214301686072;48.4584;-2.1228;-10.9190;
5087214311686072;48.4706;-2.1716;-10.9434;
5087214321686072;48.4462;-2.1716;-10.8702;
5087214331686072;48.3364;-2.2448;-10.7604;
5087214341686072;48.3852;-2.2570;-10.7970;
5087214351686072;48.4218;-2.2814;-10.9068;
5087214361686072;48.4218;-2.2936;-10.9434;
5087214371686072;48.4218;-2.3180;-10.9434;
5087214381686072;48.3852;-2.3424;-10.9312;
5087214391686072;48.3852;-2.4034;-10.9434;
5087214401686072;48.4706;-2.4278;-10.9922;
5087214411686072;48.5682;-2.4400;-11.0898;
5087214421686072;48.5438;-2.4766;-11.0654;
5087214431686072;48.4584;-2.4766;-10.9190;
5087214441686072;48.5072;-2.5132;-10.9434;
5087214451686072;48.5560;-2.5498;-11.0166;
5087214461686072;48.6048;-2.5498;-11.0288;
5087214471686072;48.6292;-2.5132;-11.0166;
5087214481686072;48.5438;-2.5620;-11.0044;
5087214491686072;48.5804;-2.5620;-10.9922;
5087214501686072;48.6780;-2.5986;-11.0654;
5087214511686072;48.7756;-2.6108;-11.2362;
5087214521686072;48.7756;-2.6596;-11.2118;
5087214531686072;48.6292;-2.6596;-11.1142;
5087214541686072;48.6536;-2.6840;-11.2362;
5087214551686072;48.6292;-2.7450;-11.1630;
5087214561686072;48.5560;-2.7938;-10.9678;
5087214571686072;48.4218;-2.8060;-10.8336;
5087214581686072;48.2876;-2.8182;-10.7604;
5087214591686072;48.2388;-2.8792;-10.6750;
5087214601686072;48.2144;-2.8548;-10.6384;
5087214611686072;48.3364;-2.9158;-10.6994;
5087214621686072;48.2510;-2.9402;-10.4920;
5087214631686072;48.1168;-2.9280;-10.4432;
5087214641686072;47.9826;-2.9524;-10.3456;
5087214651686072;47.8972;-3.9162;-10.6872;
5087214661686072;47.8484;-3.9528;-10.5896;
5087214671686072;47.9216;-3.9894;-10.6140;
5087214681686072;47.9216;-4.0504;-10.5286;
5087214691686072;47.8240;-4.0382;-10.4066;
5087214701686072;47.8240;-4.0748;-10.4676;
5087214711686072;48.0192;-4.0870;-10.6384;
5087214721686072;48.2144;-4.0626;-10.8458;
5087214731686072;48.3364;-4.0504;-10.8946;
5087214741686072;48.3730;-4.0382;-10.9068;
5087214751686072;48.1656;-4.0260;-10.7482;
5087214761686072;48.0924;-4.0138;-10.6994;
5087214771686072;48.0192;-4.0016;-10.6872;
5087214781686072;47.8850;-3.9894;-10.4798;
5087214791686072;47.6776;-4.0016;-10.1992;
5087214801686072;47.5922;-4.0260;-10.0894;
5087214811686072;47.5922;-4.0748;-10.1138;
5087214821686072;47.4824;-4.1114;-9.9674;
5087214831686072;47.5800;-4.0992;-10.1016;
5087214841686072;47.6532;-4.1114;-10.2358;
5087214851686072;47.7996;-4.1358;-10.4310;
5087214861686072;47.8484;-4.1724;-10.4920;
5087214871686072;47.8240;-4.2090;-10.5652;
5087214881686072;47.8240;-4.2090;-10.6140;
5087214891686072;47.8362;-4.2456;-10.6262;
5087214901686072;47.9704;-4.2090;-10.7726;
5087214911686072;47.8606;-4.2700;-10.5896;
5087214921686072;47.7752;-4.2456;-10.4554;
5087214931686072;47.6776;-4.2456;-10.2480;
5087214941686072;47.6654;-4.2944;-10.2358;
5087214951686072;47.6898;-4.3188;-10.2358;
5087214961686072;47.5922;-4.2700;-10.1504;
5087214971686072;47.5312;-4.1846;-10.1260;
5087214981686072;47.4214;-4.1846;-10.1138;
5087214991686072;47.5434;-4.1724;-10.2358;
5087215001686072;47.5556;-4.1968;-10.2480;
5087215011686072;47.6532;-4.1724;-10.3822;
5087215021686072;47.7142;-4.0626;-10.4066;
5087215031686072;47.7630;-4.0138;-10.4554;
5087215041686072;47.9094;-4.0016;-10.6994;
5087215051686072;47.9826;-3.9406;-10.7238;
5087215061686072;48.0070;-3.9162;-10.7726;
5087215071686072;48.0070;-3.8064;-10.7848;
5087215081686072;47.9582;-3.7210;-10.8458;
5087215091686072;47.7874;-3.6356;-10.6872;
5087215101686072;47.7264;-3.6234;-10.5896;
5087215111686072;47.6288;-3.5136;-10.5286;
5087215121686072;47.4580;-3.4282;-10.1992;
5087215131686072;47.2506;-3.4038;-10.0284;
5087215141686072;47.1286;-3.3672;-9.8576;
5087215151686072;46.9944;-3.3428;-9.7112;
5087215161686072;46.8236;-3.2818;-9.5038;
5087215171686072;46.7138;-3.2452;-9.3330;
5087215181686072;46.5430;-3.1842;-9.2354;
5087215191686072;46.5796;-3.1964;-9.2964;
5087215201686072;46.6528;-3.1964;-9.3940;
5087215211686072;46.7382;-3.1842;-9.5526;
5087215221686072;46.8358;-3.1476;-9.6014;
5087215231686072;46.8358;-3.0988;-9.5892;
5087215241686072;47.0554;-3.0866;-9.8210;
5087215251686072;47.2384;-3.0988;-10.1260;
5087215261686072;47.3970;-3.1354;-10.3456;
5087215271686072;47.4336;-3.0988;-10.3456;
5087215281686072;47.5800;-3.1110;-10.6018;
5087215291686072;47.6776;-3.1476;-10.6750;
5087215301686072;47.6532;-3.1720;-10.6628;
5087215311686072;47.5800;-3.2452;-10.7116;
5087215321686072;47.5678;-3.2940;-10.7116;
5087215331686072;47.5434;-3.3306;-10.7116;
5087215341686072;47.5556;-3.3428;-10.7116;
5087215351686072;47.6166;-3.4404;-10.7238;
5087215361686072;47.6776;-3.5014;-10.7848;
5087215371686072;47.7874;-3.5502;-10.9556;
5087215381686072;47.9582;-3.5746;-11.2118;
5087215391686072;48.1534;-3.6234;-11.4558;
5087215401686072;48.2754;-3.6844;-11.5290;
5087215411686072;48.0924;-3.7942;-11.3338;
5087215421686072;47.9338;-3.9162;-11.1020;
5087215431686072;47.7752;-3.9528;-10.9800;
5087215441686072;47.5068;-4.0382;-10.6384;
5087215451686072;47.2628;-4.0992;-10.3456;
5087215461686072;47.1408;-4.1846;-10.1870;
5087215471686072;47.0554;-4.2822;-10.0528;
5087215481686072;46.9944;-4.2944;-10.0650;
5087215491686072;47.1408;-4.3310;-10.2358;
5087215501686072;47.3970;-4.3310;-10.5286;
5087215511686072;47.6288;-4.3676;-10.7970;
5087215521686072;47.7142;-4.3920;-11.0044;
5087215531686072;47.7020;-4.4530;-10.9556;
5087215541686072;47.5556;-4.4896;-10.8214;
5087215551686072;47.5312;-4.4530;-10.7726;
5087215561686072;47.4702;-4.5018;-10.5896;
5087215571686072;47.4580;-4.5384;-10.5286;
5087215581686072;47.3116;-4.5750;-10.4188;
5087215591686072;47.1164;-4.5750;-10.1626;
5087215601686072;47.0066;-4.6238;-9.9552;
5087215611686072;47.1530;-4.5750;-10.1382;
5087215621686072;47.3726;-4.5384;-10.3212;
5087215631686072;47.4092;-4.5872;-10.3822;
5087215641686072;47.3604;-4.6116;-10.3822;
5087215651686072;47.2750;-4.6116;-10.3090;
5087215661686072;47.2750;-4.5994;-10.3212;
5087215671686072;47.2994;-4.6604;-10.4066;
5087215681686072;47.3970;-4.6482;-10.6262;
5087215691686072;47.3604;-4.6970;-10.6140;
5087215701686072;47.2384;-4.7458;-10.5774;
5087215711686072;47.1286;-4.7214;-10.4798;
5087215721686072;47.0554;-4.7336;-10.5042;
5087215731686072;46.9456;-4.7702;-10.5286;
5087215741686072;46.9700;-4.7458;-10.5530;
5087215751686072;46.9578;-4.7458;-10.6506;
5087215761686072;46.8968;-4.6970;-10.6384;
5087215771686072;46.8724;-4.7336;-10.6262;
5087215781686072;46.8114;-4.7580;-10.6018;
5087215791686072;46.8358;-4.7580;-10.6140;
5087215801686072;46.8846;-4.7580;-10.6750;
5087215811686072;47.1530;-4.7092;-10.8580;
5087215821686072;47.1408;-4.7824;-10.8336;
5087215831686072;46.9944;-4.7580;-10.6506;
5087215841686072;46.9090;-4.7824;-10.4554;
5087215851686072;46.9578;-4.7702;-10.5408;
5087215861686072;47.0310;-4.7946;-10.5896;
5087215871686072;47.1408;-4.7824;-10.7726;
5087215881686072;47.2872;-4.7702;-10.9922;
5087215891686072;47.3482;-4.7702;-11.1264;
5087215901686072;47.4214;-4.7702;-11.2606;
5087215911686072;47.4946;-4.7580;-11.4314;
5087215921686072;47.7264;-4.7580;-11.6998;
5087215931686072;47.6532;-4.7946;-11.7120;
5087215941686072;47.7386;-4.8068;-11.8340;
5087215951686072;47.7264;-4.7946;-11.7852;
5087215961686072;47.6410;-4.8312;-11.7120;
5087215971686072;47.5556;-4.8312;-11.6266;
5087215981686072;47.4946;-4.7702;-11.6022;
5087215991686072;47.5556;-4.8068;-11.6388;
5087216001686072;47.4336;-4.8068;-11.4680;
5087216011686072;47.4214;-4.7702;-11.4314;
5087216021686072;47.3238;-4.7336;-11.2728;
5087216031686072;47.2018;-4.7946;-11.2240;
5087216041686072;47.3116;-4.7702;-11.3216;
5087216051686072;47.3116;-4.7580;-11.3948;
5087216061686072;47.3360;-4.8190;-11.4070;
5087216071686072;47.2872;-4.8312;-11.3338;
5087216081686072;47.2140;-4.8556;-11.2850;
5087216091686072;47.0798;-4.8312;-11.1508;
5087216101686072;47.1530;-4.8068;-11.1874;
5087216111686072;47.1408;-4.7946;-11.1264;
5087216121686072;46.9334;-4.7824;-10.7238;
5087216131686072;46.8724;-4.7946;-10.5530;
5087216141686072;46.8358;-4.7092;-10.4066;
5087216151686072;46.8358;-4.6604;-10.2968;
5087216161686072;46.8114;-4.5872;-10.1748;
5087216171686072;46.8480;-4.5994;-10.1504;
5087216181686072;46.8846;-4.5506;-10.2358;
5087216191686072;47.0310;-4.4774;-10.3700;
5087216201686072;47.0798;-4.4774;-10.5164;
5087216211686072;46.8724;-4.4774;-10.2724;
5087216221686072;46.7748;-4.4896;-10.1626;
5087216231686072;46.6650;-4.4896;-10.1016;
5087216241686072;46.5796;-4.5140;-10.0162;
5087216251686072;46.5308;-4.5018;-9.9308;
5087216261686072;46.3112;-4.5018;-9.6624;
5087216271686072;46.1282;-4.5140;-9.4428;
5087216281686072;45.9696;-4.4652;-9.2232;
5087216291686072;46.0428;-4.3798;-9.2964;
5087216301686072;46.0672;-4.3066;-9.2598;
5087216311686072;46.2868;-4.2090;-9.4672;
5087216321686072;46.5186;-4.1602;-9.7478;
5087216331686072;46.7626;-4.0992;-10.0528;
5087216341686072;46.9822;-4.0504;-10.2358;
5087216351686072;47.2018;-4.0016;-10.4798;
5087216361686072;47.4702;-4.0016;-10.7360;
5087216371686072;47.7264;-3.9650;-10.9190;
5087216381686072;47.9582;-3.9406;-11.1630;
5087216391686072;47.9094;-3.9040;-11.1386;
5087216401686072;47.9704;-3.8674;-11.1264;
5087216411686072;47.9948;-3.8430;-11.1142;
5087216421686072;47.9704;-3.8552;-11.1508;
5087216431686072;47.9216;-3.7942;-11.1020;
5087216441686072;47.8850;-3.7210;-11.0654;
5087216451686072;47.7874;-3.7454;-11.0044;
5087216461686072;47.7264;-3.7576;-10.9556;
5087216471686072;47.8240;-3.7210;-10.9556;
5087216481686072;47.8850;-3.7332;-11.1630;
5087216491686072;47.9216;-3.7210;-11.2118;
5087216501686072;47.9338;-3.6722;-11.2728;
5087216511686072;47.9460;-3.6600;-11.3460;
5087216521686072;48.0070;-3.6722;-11.5412;
5087216531686072;48.0436;-3.6478;-11.7120;
5087216541686072;48.1168;-3.6356;-11.7852;
5087216551686072;48.0680;-3.6600;-11.8584;
5087216561686072;47.9826;-3.6356;-11.7242;
5087216571686072;47.9094;-3.6600;-11.6632;
5087216581686072;47.8362;-3.6844;-11.4802;
5087216591686072;47.7630;-3.6844;-11.1874;
5087216601686072;47.5800;-3.7454;-10.7970;
5087216611686072;47.5434;-3.7576;-10.5774;
5087216621686072;47.4946;-3.7698;-10.4554;
5087216631686072;47.4458;-3.8064;-10.3456;
5087216641686072;47.4214;-3.8064;-10.2114;
5087216651686072;47.2994;-3.7576;-9.9918;
5087216661686072;47.2262;-3.7088;-10.0040;
5087216671686072;47.2018;-3.6722;-10.0284;
5087216681686072;47.2506;-3.5868;-10.1504;
5087216691686072;47.2262;-3.5502;-10.1260;
5087216701686072;47.1896;-3.4160;-10.1870;
5087216711686072;47.2140;-3.3184;-10.2358;
5087216721686072;47.2018;-3.2818;-10.2114;
5087216731686072;47.2628;-3.2452;-10.3334;
5087216741686072;47.3848;-3.1598;-10.3822;
5087216751686072;47.4946;-3.0866;-10.6750;
5087216761686072;47.5556;-3.0134;-10.7848;
5087216771686072;47.5922;-2.9036;-10.8702;
5087216781686072;47.6044;-2.8914;-10.8946;
5087216791686072;47.6776;-2.8304;-11.0776;
5087216801686072;47.8606;-2.7206;-11.3948;
5087216811686072;47.9948;-2.6108;-11.5412;
5087216821686072;48.1290;-2.5742;-11.8096;
5087216831686072;48.2510;-2.5376;-11.9072;
5087216841686072;48.2510;-2.4888;-12.0170;
5087216851686072;48.3974;-2.4400;-12.2854;
5087216861686072;48.4828;-2.3912;-12.4196;
5087216871686072;48.5316;-2.3302;-12.3586;
5087216881686072;48.4828;-2.3424;-12.2854;
5087216891686072;48.2632;-2.3180;-12.1024;
5087216901686072;48.2266;-2.2814;-12.0048;
5087216911686072;48.0558;-2.2570;-11.8462;
5087216921686072;48.1290;-2.2204;-11.7730;
5087216931686072;47.9704;-2.2082;-11.5778;
5087216941686072;47.7752;-2.1838;-11.3460;
5087216951686072;47.6532;-2.1838;-11.2240;
5087216961686072;47.4580;-2.1350;-11.0776;
5087216971686072;47.5312;-2.1228;-11.1264;
5087216981686072;47.3482;-2.1106;-10.9068;
5087216991686072;47.3360;-2.0862;-10.8214;
5087217001686072;47.2628;-2.0984;-10.6994;
5087217011686072;47.0920;-2.1106;-10.5164;
5087217021686072;47.0554;-2.1106;-10.4310;
5087217031686072;46.9212;-2.1472;-10.3456;
5087217041686072;46.9090;-2.1716;-10.3822;
5087217051686072;46.9456;-2.2082;-10.4676;
5087217061686072;47.0554;-2.2204;-10.6384;
5087217071686072;47.2018;-2.2204;-10.8458;
5087217081686072;47.3116;-2.1960;-11.0288;
5087217091686072;47.5312;-2.2082;-11.3094;
5087217101686072;47.7264;-2.2448;-11.5778;
5087217111686072;47.9094;-2.1960;-11.7486;
5087217121686072;47.9948;-2.1838;-11.6632;
5087217131686072;47.9460;-2.1838;-11.6510;
5087217141686072;47.8728;-2.1960;-11.5168;
5087217151686072;47.5800;-2.2082;-11.1386;
5087217161686072;47.4580;-2.2448;-10.9678;
5087217171686072;47.4702;-2.2692;-10.9190;
5087217181686072;47.5312;-2.2448;-10.8702;
5087217191686072;47.5922;-2.2692;-10.8458;
5087217201686072;47.6288;-2.3424;-10.9800;
5087217211686072;47.7142;-2.4156;-10.9678;
5087217221686072;47.9216;-2.4522;-11.2972;
5087217231686072;48.3120;-2.5254;-11.8218;
5087217241686072;48.5194;-2.5864;-12.0902;
5087217251686072;48.5926;-2.6474;-12.2610;
5087217261686072;48.4828;-2.7572;-12.2610;
5087217271686072;48.4218;-2.8548;-12.2732;
5087217281686072;48.3852;-2.9280;-12.2000;
5087217291686072;48.4462;-2.9768;-12.2976;
5087217301686072;48.4950;-3.0988;-12.2488;
5087217311686072;48.3730;-3.1598;-12.0414;
5087217321686072;48.1778;-3.2696;-11.7486;
5087217331686072;48.0436;-3.3184;-11.4802;
5087217341686072;48.0924;-3.3916;-11.4070;
5087217351686072;47.9948;-3.4648;-11.2362;
5087217361686072;47.9582;-3.5258;-11.1142;
5087217371686072;47.7874;-3.5868;-10.8702;
5087217381686072;47.5312;-3.6234;-10.4676;
5087217391686072;47.4214;-3.6478;-10.2724;
5087217401686072;47.4580;-3.6478;-10.2358;
5087217411686072;47.4458;-3.6722;-10.1504;
5087217421686072;47.3848;-3.6600;-10.1138;
5087217431686072;47.4580;-3.6478;-10.2236;
5087217441686072;47.6410;-3.5868;-10.3944;
5087217451686072;47.7142;-3.5502;-10.3944;
5087217461686072;47.6532;-3.5258;-10.4188;
5087217471686072;47.7020;-3.5258;-10.3700;
5087217481686072;47.5922;-3.4770;-10.2480;
5087217491686072;47.5556;-3.4892;-10.1992;
5087217501686072;47.4824;-3.4526;-9.9796;
5087217511686072;47.3604;-3.4526;-9.7478;
5087217521686072;47.2018;-3.4648;-9.5160;
5087217531686072;47.1286;-3.4404;-9.4672;
5087217541686072;47.3116;-3.3794;-9.5770;
5087217551686072;47.3848;-3.3306;-9.7234;
5087217561686072;47.4336;-3.2696;-9.8088;
5087217571686072;47.5312;-3.2086;-9.8332;
5087217581686072;47.6654;-3.1720;-10.0406;
5087217591686072;47.7020;-3.0866;-10.0528;
5087217601686072;47.6776;-3.0500;-10.0406;
5087217611686072;47.7020;-2.9890;-10.0406;
5087217621686072;47.5678;-2.9646;-9.9064;
5087217631686072;47.3604;-2.9036;-9.7356;
5087217641686072;47.2994;-2.8914;-9.6380;
5087217651686072;47.2506;-2.8548;-9.6746;
5087217661686072;47.2262;-2.8304;-9.7600;
5087217671686072;47.2750;-2.8304;-9.7356;
5087217681686072;47.3116;-2.7938;-9.8332;
5087217691686072;47.3970;-2.7816;-9.9674;
5087217701686072;47.4092;-2.7694;-10.0528;
5087217711686072;47.4946;-2.7572;-10.1138;
5087217721686072;47.5800;-2.7816;-10.2358;
5087217731686072;47.5800;-2.7938;-10.2724;
5087217741686072;47.5678;-2.7938;-10.2480;
5087217751686072;47.5434;-2.8182;-10.3822;
5087217761686072;47.6288;-2.8548;-10.5774;
5087217771686072;47.6654;-2.8426;-10.6506;
5087217781686072;47.6898;-2.8914;-10.6994;
5087217791686072;47.7264;-2.9890;-10.7726;
5087217801686072;47.7508;-3.0744;-10.8092;
5087217811686072;47.8484;-3.1720;-10.9678;
5087217821686072;47.8728;-3.2330;-11.0776;
5087217831686072;48.0680;-3.2940;-11.3826;
5087217841686072;48.0558;-3.3794;-11.4070;
5087217851686072;48.0680;-3.5014;-11.5412;
5087217861686072;48.0680;-3.5868;-11.6388;
5087217871686072;48.1656;-3.6600;-11.7974;
5087217881686072;48.2266;-3.7454;-11.9316;
5087217891686072;48.1900;-3.7820;-11.9316;
5087217901686072;48.2144;-3.9284;-11.8584;
5087217911686072;48.0924;-4.0138;-11.6998;
5087217921686072;48.1534;-4.0870;-11.7242;
5087217931686072;48.1900;-4.1724;-11.7120;
5087217941686072;48.3120;-4.2578;-11.7852;
5087217951686072;48.3608;-4.3432;-11.7730;
5087217961686072;48.3852;-4.4408;-11.8096;
5087217971686072;48.4462;-4.5628;-11.8218;
5087217981686072;48.5194;-4.6238;-11.9682;
5087217991686072;48.5682;-4.7092;-12.0048;
5087218001686072;48.5926;-4.8312;-11.9682;
5087218011686072;48.6414;-4.8922;-11.9682;
5087218021686072;48.7512;-4.9532;-12.1024;
5087218031686072;48.7390;-5.0508;-12.1878;
5087218041686072;48.7146;-5.1118;-12.0780;
5087218051686072;48.5682;-5.1606;-11.9438;
5087218061686072;48.5072;-5.2338;-11.8462;
5087218071686072;48.5316;-5.3314;-11.8218;
5087218081686072;48.4584;-5.3680;-11.7364;
5087218091686072;48.3852;-5.4046;-11.6266;
5087218101686072;48.2266;-5.4412;-11.4070;
5087218111686072;48.2266;-5.4412;-11.4192;
5087218121686072;48.2632;-5.4290;-11.5656;
5087218131686072;48.3486;-5.4656;-11.6388;
5087218141686072;48.3242;-5.4412;-11.6266;
5087218151686072;48.3486;-5.4046;-11.6510;
5087218161686072;48.3486;-5.3680;-11.6876;
5087218171686072;48.3974;-5.4046;-11.6510;
5087218181686072;48.4340;-5.4412;-11.7608;
5087218191686072;48.4340;-5.4290;-11.6388;
5087218201686072;48.5316;-5.4412;-11.5656;
5087218211686072;48.6658;-5.4046;-11.6632;
5087218221686072;48.8122;-5.3924;-11.6876;
5087218231686072;48.8000;-5.3680;-11.7608;
5087218241686072;48.9098;-5.3802;-11.8218;
5087218251686072;49.0074;-5.3192;-11.9194;
5087218261686072;49.0806;-5.2582;-11.8950;
5087218271686072;49.0684;-5.2582;-11.8828;
5087218281686072;48.9708;-5.2460;-11.8950;
5087218291686072;48.9098;-5.2704;-11.8096;
5087218301686072;48.8610;-5.2582;-11.8340;
5087218311686072;48.8244;-5.2948;-11.8096;
5087218321686072;48.8732;-5.2704;-11.8340;
5087218331686072;48.8244;-5.3070;-11.8706;
5087218341686072;48.7146;-5.2948;-11.7852;
5087218351686072;48.7878;-5.2826;-11.8096;
5087218361686072;48.7512;-5.2460;-11.7242;
5087218371686072;48.7024;-5.1728;-11.6754;
5087218381686072;48.6414;-5.1362;-11.6388;
5087218391686072;48.6048;-5.0996;-11.4802;
5087218401686072;48.4462;-5.0996;-11.2728;
5087218411686072;48.2510;-5.0508;-11.0044;
5087218421686072;48.2876;-5.0264;-10.8824;
5087218431686072;48.1656;-4.9410;-10.8092;
5087218441686072;48.0802;-4.8922;-10.6994;
5087218451686072;47.9948;-4.8312;-10.5652;
5087218461686072;47.8728;-4.8190;-10.3456;
5087218471686072;47.8484;-4.7580;-10.2724;
5087218481686072;47.7752;-4.6726;-10.2114;
5087218491686072;47.7874;-4.5872;-10.2358;
5087218501686072;47.6410;-4.5262;-10.1626;
5087218511686072;47.4336;-4.4896;-9.9308;
5087218521686072;47.4458;-4.4042;-9.8332;
5087218531686072;47.5312;-4.3310;-9.8698;
5087218541686072;47.5434;-4.2334;-9.9064;
5087218551686072;47.6044;-4.1114;-9.9796;
5087218561686072;47.7142;-4.0016;-10.1382;
5087218571686072;47.8484;-3.9284;-10.2236;
5087218581686072;47.9216;-3.7820;-10.2358;
5087218591686072;47.9582;-3.6234;-10.2846;
5087218601686072;48.0070;-3.5258;-10.3578;
5087218611686072;47.8606;-3.4038;-10.2358;
5087218621686072;47.8240;-3.3184;-10.1870;
5087218631686072;47.7020;-3.2330;-10.0650;
5087218641686072;47.6288;-3.1354;-9.9308;
5087218651686072;47.5678;-3.0500;-9.8942;
5087218661686072;47.4824;-2.9890;-9.9064;
5087218671686072;47.4702;-2.9524;-9.8820;
5087218681686072;47.3604;-2.8914;-9.7966;
5087218691686072;47.3604;-2.8426;-9.8698;
5087218701686072;47.2628;-2.7572;-9.7966;
5087218711686072;47.1286;-2.7938;-9.7722;
5087218721686072;47.0310;-2.7816;-9.8576;
5087218731686072;46.9456;-2.8060;-9.9308;
5087218741686072;46.9456;-2.8548;-10.0284;
5087218751686072;47.0798;-2.9158;-10.2480;
5087218761686072;47.1896;-2.9646;-10.4920;
5087218771686072;47.1530;-3.0378;-10.4798;
5087218781686072;47.3116;-3.1598;-10.6994;
5087218791686072;47.5312;-3.2208;-10.8580;
5087218801686072;47.6288;-3.3550;-10.7970;
5087218811686072;47.7142;-3.4404;-10.7848;
5087218821686072;47.7752;-3.5990;-10.7360;
5087218831686072;47.7508;-3.7454;-10.6628;
5087218841686072;47.7508;-3.9650;-10.6384;
5087218851686072;47.8972;-4.1480;-10.7604;
5087218861686072;47.8850;-4.2822;-10.6506;
5087218871686072;47.8972;-4.3798;-10.5408;
5087218881686072;47.9582;-4.4408;-10.5408;
5087218891686072;47.9826;-4.5506;-10.4554;
5087218901686072;48.0924;-4.5384;-10.4920;
5087218911686072;48.0924;-4.5506;-10.3456;
5087218921686072;48.0314;-4.4896;-10.0894;
5087218931686072;47.9826;-4.4530;-9.9186;
5087218941686072;47.9338;-4.4408;-9.8332;
5087218951686072;47.7996;-4.3920;-9.8698;
5087218961686072;47.6410;-4.3798;-9.7234;
5087218971686072;47.6288;-4.3310;-9.7722;
5087218981686072;47.5434;-4.2334;-9.8820;
5087218991686072;47.6654;-4.1236;-10.0772;
5087219001686072;47.7874;-4.0382;-10.3090;
5087219011686072;47.8240;-3.9528;-10.4188;
5087219021686072;47.8484;-3.8186;-10.4798;
5087219031686072;47.8850;-3.7454;-10.4432;
5087219041686072;47.9704;-3.5746;-10.6140;
5087219051686072;47.8362;-3.4282;-10.5164;
5087219061686072;47.7264;-3.3428;-10.3944;
5087219071686072;47.5922;-3.2696;-10.3700;
5087219081686072;47.5312;-3.1476;-10.3090;
5087219091686072;47.4702;-3.0500;-10.3212;
5087219101686072;47.3726;-2.9524;-10.2236;
5087219111686072;47.1896;-2.8182;-10.1016;
5087219121686072;47.1164;-2.7084;-9.9552;
5087219131686072;47.1042;-2.6230;-10.0040;
5087219141686072;47.2018;-2.5376;-10.0284;
5087219151686072;47.2628;-2.3912;-10.0650;
5087219161686072;47.1652;-2.3302;-10.0162;
5087219171686072;47.1896;-2.2204;-10.0284;
5087219181686072;47.2750;-2.1716;-10.2724;
5087219191686072;47.4946;-2.1228;-10.5896;
5087219201686072;47.6044;-2.0618;-10.8702;
5087219211686072;47.7508;-2.0008;-11.1142;
5087219221686072;47.8240;-1.9642;-11.2850;
5087219231686072;47.7874;-1.9520;-11.4070;
5087219241686072;47.8850;-1.9032;-11.6510;
5087219251686072;47.8606;-1.8788;-11.6876;
5087219261686072;47.7630;-1.8300;-11.6022;
5087219271686072;47.6776;-1.7690;-11.4802;
5087219281686072;47.2628;-1.7812;-11.0532;
5087219291686072;47.1652;-1.7324;-10.9800;
5087219301686072;47.0676;-1.6836;-10.8946;
5087219311686072;47.0920;-1.6470;-10.8458;
5087219321686072;47.1164;-1.6104;-10.9068;
5087219331686072;47.2018;-1.5494;-11.1508;
5087219341686072;47.2994;-1.5250;-11.2606;
5087219351686072;47.3848;-1.5494;-11.4192;
5087219361686072;47.7142;-1.4762;-11.9194;
5087219371686072;47.7630;-1.4762;-11.9926;
5087219381686072;47.8484;-1.4518;-12.1390;
5087219391686072;47.7996;-1.4884;-12.2122;
5087219401686072;47.7020;-1.5006;-12.0780;
5087219411686072;47.5678;-1.5372;-11.9560;
5087219421686072;47.5312;-1.5250;-12.0048;
5087219431686072;47.5800;-1.5250;-12.1390;
5087219441686072;47.6166;-1.5616;-12.1512;
5087219451686072;47.6166;-1.6226;-12.1756;
5087219461686072;47.4702;-1.6714;-12.0780;
5087219471686072;47.4336;-1.6836;-11.9560;
5087219481686072;47.4458;-1.7080;-11.9804;
5087219491686072;47.5434;-1.7324;-12.0902;
5087219501686072;47.6654;-1.7690;-12.1512;
5087219511686072;47.6532;-1.8178;-12.2000;
5087219521686072;47.6044;-1.8666;-12.0902;
5087219531686072;47.5190;-1.9398;-11.9438;
5087219541686072;47.4702;-2.0008;-11.9316;
5087219551686072;47.3360;-2.0618;-11.8706;
5087219561686072;47.2262;-2.1228;-11.7242;
5087219571686072;47.0676;-2.1838;-11.5778;
5087219581686072;47.0676;-2.3058;-11.6632;
5087219591686072;47.0066;-2.3912;-11.5290;
5087219601686072;47.0188;-2.5010;-11.5778;
5087219611686072;47.0798;-2.5376;-11.6754;
5087219621686072;47.2384;-2.5620;-11.7974;
5087219631686072;47.4458;-2.6474;-12.0170;
5087219641686072;47.6166;-2.7450;-12.2122;
5087219651686072;47.7630;-2.8182;-12.2976;
5087219661686072;47.6776;-2.8914;-12.1512;
5087219671686072;47.5922;-2.9524;-11.9926;
5087219681686072;47.4458;-2.9890;-11.8096;
5087219691686072;47.4214;-3.0744;-11.7486;
5087219701686072;47.4092;-3.2086;-11.7364;
5087219711686072;47.3238;-3.2574;-11.6632;
5087219721686072;47.2994;-3.3428;-11.6754;
5087219731686072;47.2506;-3.4526;-11.6754;
5087219741686072;47.2750;-3.4892;-11.7120;
5087219751686072;47.2750;-3.5502;-11.7974;
5087219761686072;47.3116;-3.6112;-11.8340;
5087219771686072;47.2628;-3.6722;-11.7364;
5087219781686072;47.1164;-3.6600;-11.5534;
5087219791686072;47.0432;-3.6966;-11.3704;
5087219801686072;46.9700;-3.7210;-11.2606;
5087219811686072;46.9700;-3.7210;-11.1996;
5087219821686072;46.8724;-3.7576;-11.0776;
5087219831686072;46.9090;-3.7942;-11.0532;
5087219841686072;47.0310;-3.8186;-11.1874;
5087219851686072;46.9578;-3.8064;-11.1630;
5087219861686072;46.9700;-3.8552;-11.2484;
5087219871686072;47.0554;-3.8430;-11.3704;
5087219881686072;47.0310;-3.8552;-11.4070;
5087219891686072;47.0188;-3.8430;-11.3704;
5087219901686072;47.1164;-3.8430;-11.3948;
5087219911686072;47.2262;-3.8064;-11.5534;
5087219921686072;47.4824;-3.7210;-11.7364;
5087219931686072;47.8118;-3.6966;-11.9926;
5087219941686072;47.9216;-3.6844;-12.0414;
5087219951686072;47.9948;-3.6844;-12.0536;
5087219961686072;48.1412;-3.6112;-12.1024;
5087219971686072;48.2144;-3.5502;-12.1634;
5087219981686072;48.2754;-3.4892;-12.4074;
5087219991686072;48.2510;-3.4770;-12.3586;
5087220001686072;48.1046;-3.4282;-12.1878;
5087220011686072;48.0558;-3.4038;-12.2610;
5087220021686072;48.1534;-3.3184;-12.3220;
5087220031686072;48.2022;-3.2818;-12.4440;
5087220041686072;48.1656;-3.2574;-12.3830;
5087220051686072;48.0558;-3.2574;-12.3098;
5087220061686072;47.8972;-3.2208;-12.0780;
5087220071686072;47.7386;-3.1720;-11.9438;
5087220081686072;47.5190;-3.1598;-11.8218;
5087220091686072;47.2872;-3.1232;-11.5534;
5087220101686072;47.1164;-3.0622;-11.4070;
5087220111686072;46.9578;-2.9890;-11.2606;
5087220121686072;46.8602;-2.9036;-11.1630;
5087220131686072;46.8602;-2.8304;-11.1874;
5087220141686072;46.9212;-2.7694;-11.2850;
5087220151686072;47.0920;-2.6962;-11.3460;
5087220161686072;47.1530;-2.6474;-11.3338;
5087220171686072;47.2018;-2.6108;-11.2972;
5087220181686072;47.1042;-2.5620;-11.0898;
5087220191686072;47.0676;-2.5376;-11.1142;
5087220201686072;47.0676;-2.4766;-11.2118;
5087220211686072;47.0310;-2.4400;-11.1630;
5087220221686072;47.0188;-2.3912;-11.1752;
5087220231686072;46.7626;-2.3058;-11.0532;
5087220241686072;46.6162;-2.2204;-11.0044;
5087220251686072;46.4576;-2.1350;-10.9556;
5087220261686072;46.3722;-2.0618;-11.0288;
5087220271686072;46.3356;-1.9276;-10.9800;
5087220281686072;46.3966;-1.8178;-11.0410;
5087220291686072;46.4942;-1.6958;-11.1874;
5087220301686072;46.5796;-1.5860;-11.2118;
5087220311686072;46.7504;-1.5006;-11.4436;
5087220321686072;46.9578;-1.4396;-11.6388;
5087220331686072;47.2750;-1.3908;-11.9804;
5087220341686072;47.4702;-1.3298;-12.1634;
5087220351686072;47.6410;-1.2932;-12.3220;
5087220361686072;47.6288;-1.2932;-12.2854;
5087220371686072;47.5434;-1.2810;-12.1390;
5087220381686072;47.4702;-1.2810;-12.1512;
5087220391686072;47.4458;-1.2932;-12.0536;
5087220401686072;47.4458;-1.3054;-12.1024;
5087220411686072;47.2994;-1.2810;-11.8828;
5087220421686072;47.2872;-1.2810;-11.8950;
5087220431686072;47.2628;-1.3176;-11.7730;
5087220441686072;47.2506;-1.3176;-11.7120;
5087220451686072;47.3238;-1.3542;-11.8096;
5087220461686072;47.3604;-1.3786;-11.6754;
5087220471686072;47.2994;-1.4518;-11.5534;
5087220481686072;47.2262;-1.5006;-11.3338;
5087220491686072;47.2384;-1.5616;-11.3338;
5087220501686072;47.2506;-1.6470;-11.2484;
5087220511686072;47.2750;-1.7324;-11.3460;
5087220521686072;47.2872;-1.8666;-11.3460;
5087220531686072;47.2628;-1.9764;-11.2972;
5087220541686072;47.2750;-2.0740;-11.3338;
5087220551686072;47.4580;-2.1350;-11.5900;
5087220561686072;47.5678;-2.2448;-11.6632;
5087220571686072;47.6166;-2.3546;-11.6510;
5087220581686072;47.6288;-2.4888;-11.6998;
5087220591686072;47.6288;-2.5864;-11.5656;
5087220601686072;47.7264;-2.6840;-11.5656;
5087220611686072;47.8728;-2.8182;-11.6754;
5087220621686072;47.9704;-2.9280;-11.6022;
5087220631686072;47.9704;-3.0378;-11.4558;
5087220641686072;48.0314;-3.1232;-11.4436;
5087220651686072;48.1290;-3.2330;-11.4924;
5087220661686072;48.1900;-3.3550;-11.5046;
5087220671686072;48.2144;-3.4648;-11.4924;
5087220681686072;48.1290;-3.5502;-11.3582;
5087220691686072;47.9582;-3.6356;-11.0654;
5087220701686072;47.7752;-3.7698;-10.8946;
5087220711686072;47.6532;-3.9040;-10.6994;
5087220721686072;47.4946;-3.9772;-10.4554;
5087220731686072;47.3604;-4.0992;-10.3212;
5087220741686072;47.2384;-4.1724;-10.0772;
5087220751686072;46.9334;-4.3066;-9.7356;
5087220761686072;46.7382;-4.4652;-9.5038;
5087220771686072;46.7992;-4.5628;-9.5160;
5087220781686072;46.8236;-4.6360;-9.6014;
5087220791686072;46.8724;-4.7580;-9.6258;
5087220801686072;46.9456;-4.9044;-9.7600;
5087220811686072;47.0066;-4.9776;-9.7234;
5087220821686072;47.0432;-5.1240;-9.7844;
5087220831686072;47.2506;-5.1850;-10.0406;
5087220841686072;47.3848;-5.3070;-10.2358;
5087220851686072;47.4336;-5.3924;-10.3578;
5087220861686072;47.4092;-5.5144;-10.4554;
5087220871686072;47.3726;-5.6242;-10.4920;
5087220881686072;47.3726;-5.7584;-10.6750;
5087220891686072;47.2994;-5.9292;-10.7482;
5087220901686072;47.2506;-6.0390;-10.7970;
5087220911686072;47.2262;-6.1732;-10.9434;
5087220921686072;47.3116;-6.2708;-11.1142;
5087220931686072;47.1530;-6.4050;-10.9434;
5087220941686072;47.1042;-6.5026;-10.7848;
5087220951686072;47.0554;-6.5758;-10.6018;
5087220961686072;46.9212;-6.6368;-10.3212;
5087220971686072;46.8602;-6.6978;-10.1748;
5087220981686072;46.9334;-6.7344;-10.2114;
5087220991686072;47.0188;-6.7710;-10.1626;
5087221001686072;47.0798;-6.8320;-10.1626;
5087221011686072;47.2506;-6.8564;-10.4676;
5087221021686072;47.4092;-6.8686;-10.6384;
5087221031686072;47.6288;-6.8930;-10.9800;
5087221041686072;47.7874;-6.9540;-11.2362;
5087221051686072;47.9460;-6.9906;-11.4558;
5087221061686072;47.9460;-7.0150;-11.4436;
5087221071686072;47.9094;-7.0516;-11.4314;
5087221081686072;47.7996;-7.0760;-11.3948;
5087221091686072;47.6898;-7.1248;-11.2606;
5087221101686072;47.6776;-7.1370;-11.2850;
5087221111686072;47.5190;-7.1126;-11.2118;
5087221121686072;47.4946;-7.0882;-11.1752;
5087221131686072;47.4214;-7.0272;-11.1752;
5087221141686072;47.3970;-7.0150;-11.1386;
5087221151686072;47.4092;-6.9784;-11.1386;
5087221161686072;47.4580;-6.9296;-11.0898;
5087221171686072;47.6044;-6.8320;-11.1264;
5087221181686072;47.8240;-6.7344;-11.2484;
5087221191686072;48.0070;-6.6246;-11.2484;
5087221201686072;48.1900;-6.5880;-11.4070;
5087221211686072;48.3608;-6.5270;-11.4680;
5087221221686072;48.4706;-6.3562;-11.4924;
5087221231686072;48.5072;-6.2342;-11.5168;
5087221241686072;48.5682;-6.0878;-11.5412;
5087221251686072;48.5072;-5.9658;-11.5290;
5087221261686072;48.2876;-5.8316;-11.3094;
5087221271686072;48.2510;-5.7340;-11.2484;
5087221281686072;48.1534;-5.5266;-11.1508;
5087221291686072;48.1656;-5.3314;-11.1508;
5087221301686072;48.1900;-5.1606;-11.1874;
5087221311686072;48.2388;-4.9898;-11.1996;
5087221321686072;48.3486;-4.7824;-11.2972;
5087221331686072;48.4584;-4.5994;-11.4192;
5087221341686072;48.5926;-4.4286;-11.4924;
5087221351686072;48.6536;-4.1968;-11.6144;
5087221361686072;48.6414;-4.0260;-11.5534;
5087221371686072;48.5926;-3.8674;-11.4924;
5087221381686072;48.7024;-3.7210;-11.6754;
5087221391686072;48.8488;-3.5380;-11.8096;
5087221401686072;48.7878;-3.3916;-11.7364;
5087221411686072;48.8244;-3.2452;-11.8096;
5087221421686072;48.9220;-3.1232;-11.9560;
5087221431686072;48.8488;-3.0378;-11.8828;
5087221441686072;48.8854;-2.9402;-11.8950;
5087221451686072;49.0562;-2.8426;-12.0780;
5087221461686072;49.1904;-2.7572;-12.2122;
5087221471686072;49.2636;-2.6718;-12.2610;
5087221481686072;49.4222;-2.6108;-12.4684;
5087221491686072;49.5320;-2.5498;-12.5660;
5087221501686072;49.5564;-2.5254;-12.5782;
5087221511686072;49.6662;-2.5010;-12.6758;
5087221521686072;49.7516;-2.5132;-12.7612;
5087221531686072;49.6662;-2.5254;-12.6758;
5087221541686072;49.5442;-2.5376;-12.4440;
5087221551686072;49.4588;-2.5254;-12.3220;
5087221561686072;49.2514;-2.5620;-12.0536;
5087221571686072;49.0562;-2.6108;-11.7242;
5087221581686072;48.8244;-2.6230;-11.5046;
5087221591686072;48.7756;-2.6474;-11.3826;
5087221601686072;48.6780;-2.6352;-11.2240;
5087221611686072;48.6414;-2.6230;-11.1386;
5087221621686072;48.6292;-2.5986;-11.0654;
5087221631686072;48.5072;-2.6352;-10.9678;
5087221641686072;48.4462;-2.6108;-10.8702;
5087221651686072;48.4950;-2.5742;-10.8946;
5087221661686072;48.5682;-2.6108;-10.9312;
5087221671686072;48.5682;-2.5742;-10.9190;
5087221681686072;48.6048;-2.5620;-11.0166;
5087221691686072;48.5438;-2.5498;-10.9922;
5087221701686072;48.5194;-2.5864;-11.0288;
5087221711686072;48.5804;-2.5620;-11.1142;
5087221721686072;48.7512;-2.6352;-11.2606;
5087221731686072;48.7024;-2.6230;-11.2240;
5087221741686072;48.6780;-2.6108;-11.2362;
5087221751686072;48.6658;-2.5864;-11.2362;
5087221761686072;48.5438;-2.5986;-11.0898;
5087221771686072;48.5072;-2.5864;-10.9312;
5087221781686072;48.4218;-2.5742;-10.7726;
5087221791686072;48.5194;-2.5742;-10.8580;
5087221801686072;48.6048;-2.5010;-11.0288;
5087221811686072;48.6780;-2.4522;-11.2240;
5087221821686072;48.8000;-2.4034;-11.3094;
5087221831686310;48.7756;-2.3302;-11.2240;
5087221841686310;48.7146;-2.2814;-11.2240;
5087221851686310;48.7756;-2.2204;-11.3704;
5087221861686310;48.8000;-2.1106;-11.5290;
5087221871686310;48.7268;-2.0252;-11.4314;
5087221881686310;48.6048;-1.9154;-11.2362;
5087221891686310;48.5804;-1.8544;-11.1874;
5087221901686310;48.5560;-1.7812;-11.1264;
5087221911686310;48.5194;-1.7568;-11.2118;
5087221921686310;48.6414;-1.6592;-11.3704;
5087221931686310;48.6048;-1.5860;-11.3216;
5087221941686310;48.5560;-1.5738;-11.1996;
5087221951686310;48.4950;-1.5128;-11.1020;
5087221961686310;48.3608;-1.4884;-11.0410;
5087221971686310;48.3364;-1.4884;-10.9434;
5087221981686310;48.2754;-1.5006;-10.9068;
5087221991686310;48.2510;-1.5494;-10.8580;
5087222001686310;48.2998;-1.5982;-10.8580;
5087222011686310;48.3608;-1.6592;-10.8946;
5087222021686310;48.2998;-1.7324;-10.8336;
5087222031686310;48.3242;-1.8422;-10.8824;
5087222041686310;48.3852;-1.9398;-10.9312;
5087222051686310;48.3974;-2.0008;-11.0776;
5087222061686310;48.3730;-2.0862;-11.0654;
5087222071686310;48.3608;-2.1106;-11.0288;
5087222081686310;48.3120;-2.1594;-10.9922;
5087222091686310;48.1656;-2.2082;-10.9678;
5087222101686310;48.1534;-2.2448;-11.0776;
5087222111686310;48.3486;-2.2326;-11.2850;
5087222121686310;48.5194;-2.2326;-11.5046;
5087222131686310;48.6170;-2.2326;-11.5778;
5087222141686310;48.7146;-2.1960;-11.7242;
5087222151686310;48.8488;-2.1472;-11.9560;
5087222161686310;48.8366;-2.1838;-11.9682;
5087222171686310;48.9830;-2.1838;-12.0780;
5087222181686310;49.1050;-2.1594;-12.1634;
5087222191686310;48.9098;-2.1594;-11.9926;
5087222201686310;48.8732;-2.1838;-11.9438;
5087222211686310;48.7634;-2.2082;-11.8096;
5087222221686310;48.7512;-2.2448;-11.7486;
5087222231686310;48.7268;-2.2936;-11.6998;
5087222241686310;48.7634;-2.3180;-11.7364;
5087222251686310;48.6780;-2.3668;-11.6022;
5087222261686310;48.6292;-2.4034;-11.6022;
5087222271686310;48.6658;-2.4766;-11.6144;
5087222281686310;48.6414;-2.5132;-11.6266;
5087222291686310;48.7756;-2.5254;-11.7852;
5087222301686310;48.8244;-2.5376;-11.7242;
5087222311686310;48.8610;-2.5620;-11.7608;
5087222321686310;48.8976;-2.5986;-11.8218;
5087222331686310;48.9342;-2.5986;-11.8828;
5087222341686310;49.0562;-2.6352;-11.8218;
5087222351686310;49.0806;-2.6596;-11.7608;
5087222361686310;48.9830;-2.6718;-11.5656;
5087222371686310;48.8488;-2.7206;-11.2484;
5087222381686310;48.6902;-2.7572;-11.0776;
5087222391686310;48.5560;-2.8060;-10.8580;
5087222401686310;48.5560;-2.8182;-10.6750;
5087222411686310;48.5804;-2.8792;-10.6140;
5087222421686310;48.5072;-2.8914;-10.4676;
5087222431686310;48.4828;-2.9036;-10.4676;
5087222441686310;48.5072;-2.9402;-10.4798;
5087222451686310;48.5682;-2.9280;-10.5896;
5087222461686310;48.6292;-2.9402;-10.6750;
5087222471686310;48.8122;-2.9158;-10.7482;
5087222481686310;48.8488;-2.9036;-10.8336;
5087222491686310;48.9342;-2.8670;-10.9556;
5087222501686310;49.0196;-2.8426;-11.0532;
5087222511686310;49.0562;-2.8792;-11.0654;
5087222521686310;49.0684;-2.8914;-11.0288;
5087222531686310;48.8610;-2.9402;-10.7604;
5087222541686310;48.7756;-3.0256;-10.6140;
5087222551686310;48.7146;-3.0622;-10.6018;
5087222561686310;48.7146;-3.0744;-10.5530;
5087222571686310;48.6658;-3.0744;-10.4432;
5087222581686310;48.6536;-3.1354;-10.4066;
5087222591686310;48.6292;-3.1598;-10.3578;
5087222601686310;48.7390;-3.2086;-10.3334;
5087222611686310;48.9098;-3.2696;-10.4920;
5087222621686310;49.1172;-3.3062;-10.4676;
5087222631686310;49.2026;-3.4038;-10.3090;
5087222641686310;49.1782;-3.5502;-10.1138;
5087222651686310;49.3856;-3.7210;-10.1382;
5087222661686310;49.5930;-3.8430;-10.3822;
5087222671686310;49.8248;-3.9406;-10.5896;
5087222681686310;49.9956;-4.0748;-10.8092;
5087222691686310;50.2152;-4.2334;-11.0776;
5087222701686310;50.3372;-4.3310;-11.3338;
5087222711686310;50.3250;-4.4286;-11.6266;
5087222721686310;50.4226;-4.5018;-12.0658;
5087222731686310;50.4104;-4.5140;-12.2732;
5087222741686310;50.3860;-4.5384;-12.4074;
5087222751686310;50.4226;-4.5994;-12.6270;
5087222761686310;50.3494;-4.6116;-12.7612;
5087222771686310;50.2396;-4.5018;-12.7978;
5087222781686310;50.1786;-4.4896;-12.8954;
5087222791686310;50.1542;-4.4652;-12.8954;
5087222801686310;50.1176;-4.4164;-12.7490;
5087222811686310;50.0566;-4.3798;-12.6758;
5087222821686310;49.8736;-4.3798;-12.4196;
5087222831686310;49.6906;-4.3798;-12.1146;
5087222841686310;49.6174;-4.3676;-12.0048;
5087222851686310;49.5564;-4.4652;-11.9560;
5087222861686310;49.5564;-4.4774;-12.0048;
5087222871686310;49.4832;-4.5018;-11.9438;
5087222881686310;49.4466;-4.5506;-11.9438;
5087222891686310;49.3124;-4.6360;-11.9072;
5087222901686310;49.3734;-4.7458;-12.0170;
5087222911686310;49.4832;-4.8068;-12.1268;
5087222921686310;49.4832;-4.9288;-12.1146;
5087222931686310;49.4710;-5.0264;-12.0048;
5087222941686310;49.4954;-5.1850;-11.9072;
5087222951686310;49.5564;-5.3192;-11.9560;
5087222961686310;49.6296;-5.4412;-12.0536;
5087222971686310;49.7394;-5.5876;-12.1146;
5087222981686310;49.6296;-5.6730;-12.0048;
5087222991686310;49.5442;-5.7706;-11.9682;
5087223001686310;49.5076;-5.8804;-11.9560;
5087223011686310;49.6052;-5.9292;-12.1512;
5087223021686310;49.6662;-5.9780;-12.3586;
5087223031686310;49.6906;-6.0512;-12.4684;
5087223041686310;49.6906;-6.1244;-12.5050;
5087223051686310;49.6296;-6.1732;-12.4440;
5087223061686310;49.6784;-6.2464;-12.5294;
5087223071686310;49.6662;-6.2464;-12.5904;
5087223081686310;49.7394;-6.2098;-12.7246;
5087223091686310;49.6784;-6.2464;-12.7246;
5087223101686310;49.5564;-6.1610;-12.6148;
5087223111686310;49.5564;-6.1122;-12.6880;
5087223121686310;49.5442;-6.0146;-12.7124;
5087223131686310;49.6174;-5.8682;-12.8222;
5087223141686310;49.6418;-5.7096;-12.8588;
5087223151686310;49.7028;-5.5998;-12.8100;
5087223161686310;49.6174;-5.4534;-12.7978;
5087223171686310;49.6418;-5.2338;-12.7002;
5087223181686310;49.5564;-5.0752;-12.7490;
5087223191686310;49.4710;-4.8434;-12.5782;
5087223201686310;49.3246;-4.5994;-12.4196;
5087223211686310;49.2148;-4.3554;-12.4074;
5087223221686310;49.1294;-4.1114;-12.3708;
5087223231686310;48.9586;-3.8552;-12.3464;
5087223241686310;48.9708;-3.5868;-12.4318;
5087223251686310;48.9952;-3.3916;-12.6758;
5087223261686310;49.0318;-3.2086;-12.7002;
5087223271686310;49.0318;-3.1110;-12.8100;
5087223281686310;49.2026;-3.0378;-13.2736;
5087223291686310;49.3612;-3.0378;-13.6152;
5087223301686310;49.4588;-3.0378;-13.8836;
5087223311686310;49.5320;-3.1354;-14.0910;
5087223321686310;49.5564;-3.2208;-14.2496;
5087223331686310;49.5320;-3.3428;-14.2862;
5087223341686310;49.6052;-3.4648;-14.4814;
5087223351686310;49.7516;-3.5868;-14.7742;
5087223361686310;49.7516;-3.7088;-14.7376;
5087223371686310;49.7882;-3.7942;-14.7620;
5087223381686310;49.9468;-3.8918;-14.8718;
5087223391686310;50.0322;-3.9284;-14.9328;
5087223401686310;50.1054;-3.9650;-14.9572;
5087223411686310;50.0566;-4.0260;-14.9206;
5087223421686310;50.0444;-4.0382;-14.8596;
5087223431686310;49.8614;-4.0138;-14.5546;
5087223441686310;49.7516;-3.9528;-14.3838;
5087223451686310;49.6296;-3.9284;-14.2008;
5087223461686310;49.5076;-3.8796;-14.1520;
5087223471686310;49.5686;-3.8674;-14.2618;
5087223481686310;49.5808;-3.8308;-14.2618;
5087223491686310;49.7028;-3.7454;-14.4326;
5087223501686310;49.7882;-3.6966;-14.5180;
5087223511686310;49.8370;-3.6234;-14.7132;
5087223521686310;49.8248;-3.6478;-14.7376;
5087223531686310;49.8736;-3.6722;-14.8718;
5087223541686310;49.7394;-3.7088;-14.7620;
5087223551686310;49.6906;-3.6966;-14.6766;
5087223561686310;49.6540;-3.7210;-14.7010;
5087223571686310;49.6052;-3.7820;-14.6156;
5087223581686310;49.4832;-3.8064;-14.4936;
5087223591686310;49.6174;-3.8308;-14.5546;
5087223601686310;49.7760;-3.8308;-14.7376;
5087223611686310;49.9102;-3.8186;-14.8230;
5087223621686310;50.2396;-3.8064;-15.1280;
5087223631686310;50.4226;-3.7942;-15.4208;
5087223641686310;50.5202;-3.7820;-15.4818;
5087223651686310;50.5934;-3.7210;-15.6160;
5087223661686310;50.7154;-3.6844;-15.7624;
5087223671686310;50.6910;-3.6356;-15.7380;
5087223681686310;50.5812;-3.6112;-15.6282;
5087223691686310;50.4836;-3.5380;-15.5062;
5087223701686310;50.2274;-3.5258;-15.2378;
5087223711686310;50.0688;-3.5136;-15.0060;
5087223721686310;49.9712;-3.4404;-14.9328;
5087223731686310;50.0078;-3.4282;-14.9328;
5087223741686310;49.9712;-3.4038;-14.8230;
5087223751686310;49.9468;-3.4770;-14.7864;
5087223761686310;50.0688;-3.5136;-14.7620;
5087223771686310;50.0566;-3.6478;-14.6400;
5087223781686310;50.0444;-3.7088;-14.3838;
5087223791686310;50.0322;-3.7820;-14.1764;
5087223801686310;49.9346;-4.0016;-13.8592;
5087223811686310;49.7516;-4.1724;-13.5054;
5087223821686310;49.6540;-4.4164;-13.2492;
5087223831686310;49.6662;-4.5994;-13.1150;
5087223841686310;49.5564;-4.8312;-12.9076;
5087223851686310;49.5076;-5.0386;-12.7368;
5087223861686310;49.3734;-5.2460;-12.6026;
5087223871686310;49.3246;-5.7706;-12.5172;
5087223881686310;49.4100;-5.9292;-12.5172;
5087223891686310;49.3368;-6.1000;-12.3342;
5087223901686310;49.3856;-6.2220;-12.2488;
5087223911686310;49.2880;-6.3928;-12.0780;
5087223921686310;49.4466;-6.4660;-12.1878;
5087223931686310;49.5076;-6.5514;-12.1756;
5087223941686310;49.6784;-6.6368;-12.2366;
5087223951686310;49.7272;-6.6734;-12.2488;
5087223961686310;49.8736;-6.7710;-12.3098;
5087223971686310;50.0566;-6.7710;-12.3464;
5087223981686310;50.0810;-6.8442;-12.3952;
5087223991686310;50.1786;-6.8320;-12.4196;
5087224001686310;50.1054;-6.8808;-12.2366;
5087224011686310;50.1176;-6.8686;-12.2488;
5087224021686310;50.1176;-6.8808;-12.1390;
5087224031686310;50.0932;-6.8686;-12.0292;
5087224041686310;50.0078;-6.8442;-11.9560;
5087224051686310;49.9590;-6.8808;-11.9438;
5087224061686310;49.8980;-6.8442;-11.8462;
5087224071686310;49.8858;-6.8198;-11.7608;
5087224081686310;49.8614;-6.7588;-11.7120;
5087224091686310;49.9468;-6.7466;-11.7242;
5087224101686310;49.9224;-6.7222;-11.7364;
5087224111686310;49.9346;-6.7100;-11.8584;
5087224121686310;49.9346;-6.6978;-11.8462;
5087224131686310;49.9468;-6.6490;-11.8950;
5087224141686310;50.0444;-6.5636;-11.9438;
5087224151686310;50.0322;-6.5514;-11.9804;
5087224161686310;49.8980;-6.5758;-11.9438;
5087224171686310;49.8004;-6.5270;-11.8706;
5087224181686310;49.8858;-6.4416;-11.9682;
5087224191686310;49.9102;-6.3440;-12.0170;
5087224201686310;49.8370;-6.2708;-11.9438;
5087224211686310;49.7272;-6.1488;-11.9316;
5087224221686310;49.6662;-6.1122;-11.8462;
5087224231686310;49.6296;-5.9780;-11.8218;
5087224241686310;49.6784;-5.8682;-11.8462;
5087224251686310;49.6540;-5.7340;-11.8218;
5087224261686310;49.5686;-5.6608;-11.7974;
5087224271686310;49.5564;-5.5754;-11.7730;
5087224281686310;49.5442;-5.4534;-11.8218;
5087224291686310;49.5686;-5.3924;-11.8462;
5087224301686310;49.6418;-5.3192;-12.0414;
5087224311686310;49.7150;-5.2582;-12.2000;
5087224321686310;49.6418;-5.1484;-12.1634;
5087224331686310;49.7150;-5.0996;-12.2732;
5087224341686310;49.8370;-5.0386;-12.5050;
5087224351686310;49.8614;-4.9776;-12.5172;
5087224361686310;49.9834;-4.9166;-12.6392;
5087224371686310;50.0322;-4.8678;-12.6270;
5087224381686310;50.0078;-4.8190;-12.5782;
5087224391686310;49.9346;-4.7824;-12.4684;
5087224401686310;50.0444;-4.7702;-12.5294;
5087224411686310;50.0200;-4.6848;-12.4562;
5087224421686310;49.8492;-4.6604;-12.2000;
5087224431686310;49.7272;-4.6360;-12.0170;
5087224441686310;49.7272;-4.6360;-11.8828;
5087224451686310;49.6296;-4.6360;-11.7242;
5087224461686310;49.5076;-4.6116;-11.5656;
5087224471686310;49.4954;-4.5750;-11.4436;
5087224481686310;49.6052;-4.5750;-11.5412;
5087224491686310;49.5808;-4.6116;-11.5168;
5087224501686310;49.6540;-4.6238;-11.5900;
5087224511686310;49.7272;-4.6604;-11.7486;
5087224521686310;49.6296;-4.6970;-11.7364;
5087224531686310;49.7638;-4.6848;-11.8706;
5087224541686310;49.9590;-4.6970;-12.0780;
5087224551686310;50.0932;-4.7336;-12.2122;
5087224561686310;49.8980;-4.7580;-11.8706;
5087224571686310;49.7638;-4.7336;-11.6022;
5087224581686310;49.3612;-5.0020;-11.7242;
5087224591686310;49.1416;-5.0142;-11.2728;
5087224601686310;49.0318;-4.9776;-10.9678;
5087224611686310;48.8488;-4.9898;-10.6628;
5087224621686310;48.7390;-4.9532;-10.4310;
5087224631686310;48.6292;-4.9898;-10.2480;
5087224641686310;48.6536;-5.0142;-10.3212;
5087224651686310;48.7268;-5.0874;-10.4310;
5087224661686310;48.7878;-5.0996;-10.5042;
5087224671686310;48.9464;-5.1484;-10.7238;
5087224681686310;48.9708;-5.2704;-10.7238;
5087224691686310;49.1538;-5.3558;-10.8458;
5087224701686310;49.1782;-5.4168;-10.8092;
5087224711686310;49.1416;-5.4900;-10.7238;
5087224721686310;49.2026;-5.5266;-10.6994;
5087224731686310;49.1660;-5.5754;-10.6384;
5087224741686310;49.1660;-5.5876;-10.5774;
5087224751686310;49.2270;-5.5754;-10.5286;
5087224761686310;49.2392;-5.5144;-10.5286;
5087224771686310;49.1538;-5.5144;-10.3822;
5087224781686310;49.0684;-5.5266;-10.3090;
5087224791686310;48.9952;-5.4412;-10.1260;
5087224801686310;48.8732;-5.3802;-9.8820;
5087224811686310;48.8244;-5.2582;-9.6868;
5087224821686310;48.8122;-5.1728;-9.5892;
5087224831686310;48.6902;-5.0752;-9.4672;
5087224841686310;48.6292;-4.9288;-9.3696;
5087224851686310;48.5804;-4.7336;-9.2842;
5087224861686310;48.4828;-4.5872;-9.1988;
5087224871686310;48.4096;-4.4652;-9.1012;
5087224881686310;48.4218;-4.3310;-9.1500;
5087224891686310;48.5194;-4.1846;-9.2842;
5087224901686310;48.5926;-4.0748;-9.2476;
5087224911686310;48.5926;-3.9772;-9.2842;
5087224921686310;48.7146;-3.9284;-9.3208;
5087224931686310;48.8366;-3.9650;-9.5160;
5087224941686310;49.1782;-3.9528;-9.8088;
5087224951686310;49.5320;-3.9284;-10.1504;
5087224961686310;49.7272;-3.9284;-10.3822;
5087224971686310;49.8004;-3.9650;-10.3700;
5087224981686310;49.7882;-4.0138;-10.3334;
5087224991686310;49.9346;-4.0138;-10.3822;
5087225001686310;50.0078;-3.9528;-10.2602;
5087225011686310;50.0566;-3.8186;-10.1260;
5087225021686310;49.8736;-3.7698;-9.8088;
5087225031686310;49.6662;-3.6356;-9.5282;
5087225041686310;49.5930;-3.4404;-9.2964;
5087225051686310;49.6174;-3.2330;-9.2598;
5087225061686310;49.7394;-2.9524;-9.3818;
5087225071686310;49.9956;-2.6474;-9.5038;
5087225081686310;50.2152;-2.3546;-9.8454;
5087225091686310;50.5202;-2.0496;-10.2358;
5087225101686310;50.9716;-1.6348;-10.6750;
5087225111686310;51.3742;-1.2932;-11.0532;
5087225121686310;51.7524;-0.9516;-11.2728;
5087225131686310;52.1428;-0.5856;-11.4314;
5087225141686310;52.4966;-0.2074;-11.4802;
5087225151686310;52.7894;0.1220;-11.3704;
5087225161686310;53.0212;0.5002;-10.9678;
5087225171686310;53.4360;0.8784;-10.3456;
5087225181686310;53.9240;1.2444;-9.6990;
5087225191686310;54.3876;1.5250;-8.6986;
5087225201686310;54.8512;1.7690;-7.5762;
5087225211686310;55.2782;1.8788;-6.2586;
5087225221686310;55.7662;1.6104;-4.5384;
5087225231686310;56.2420;1.0248;-2.8060;
5087225241686310;56.8032;0.1342;-1.1590;
5087225251686310;57.1326;-1.1102;0.3782;
5087225261686310;57.1204;-3.0500;1.9276;
5087225271686310;57.0838;-5.2826;2.8548;
5087225281686310;57.1082;-7.7348;3.1110;
5087225291686310;56.9496;-10.3334;2.9890;
5087225301686310;56.4982;-12.8222;2.1350;
5087225311686310;55.7662;-15.1158;0.5368;
5087225321686310;54.8268;-17.0678;-1.4396;
5087225331686310;53.7776;-18.6782;-3.5990;
5087225341686310;52.9480;-19.4834;-6.0512;
5087225351686310;52.2038;-19.8250;-8.4058;
5087225361686310;51.2522;-19.6664;-10.3944;
5087225371686310;50.4592;-19.1174;-12.1634;
5087225381686310;49.8614;-18.2634;-13.6518;
5087225391686310;49.3612;-17.2142;-14.3838;
5087225401686310;49.1172;-16.1284;-14.9084;
5087225411686310;48.9098;-15.0426;-15.1280;
5087225421686310;48.7024;-14.0300;-15.0670;
5087225431686310;48.5194;-13.1150;-14.8718;
5087225441686310;48.4096;-12.4318;-14.5546;
5087225451686310;48.3486;-11.7852;-14.2130;
5087225461686310;48.2388;-11.2240;-13.9080;
5087225471686310;48.2876;-10.7482;-13.6518;
5087225481686310;48.1778;-10.4310;-13.2492;
5087225491686310;48.1168;-10.1260;-12.9442;
5087225501686310;48.1412;-9.8820;-12.7124;
5087225511686310;48.2266;-9.6258;-12.6148;
5087225521686310;48.2510;-9.4672;-12.5172;
5087225531686310;48.2876;-9.3818;-12.4806;
5087225541686310;48.4096;-9.3452;-12.3708;
5087225551686310;48.3242;-9.3452;-12.1512;
5087225561686310;48.3242;-9.3086;-12.1268;
5087225571686310;48.2876;-9.2842;-11.9072;
5087225581686310;48.1778;-9.2720;-11.7486;
5087225591686310;48.0558;-9.3330;-11.5900;
5087225601686310;48.0314;-9.3208;-11.5656;
5087225611686310;47.9338;-9.3818;-11.4558;
5087225621686310;47.8850;-9.4306;-11.4192;
5087225631686310;47.9094;-9.4062;-11.4802;
5087225641686310;47.8728;-9.4306;-11.3826;
5087225651686310;47.9094;-9.4672;-11.5046;
5087225661686310;47.9094;-9.4794;-11.5656;
5087225671686310;47.8362;-9.4916;-11.4680;
5087225681686310;47.9094;-9.5160;-11.4070;
5087225691686310;47.9094;-9.5038;-11.3704;
5087225701686310;47.8850;-9.4916;-11.2850;
5087225711686310;47.8484;-9.5160;-11.2850;
5087225721686310;47.9704;-9.4428;-11.4192;
5087225731686310;47.9948;-9.4062;-11.4436;
5087225741686310;48.0070;-9.3452;-11.4802;
5087225751686310;48.0802;-9.2842;-11.6266;
5087225761686310;48.1168;-9.2232;-11.7486;
5087225771686310;48.2632;-9.1622;-11.9072;
5087225781686310;48.3486;-9.0646;-12.0414;
5087225791686310;48.5316;-9.0280;-12.1878;
5087225801686310;48.5926;-9.0524;-12.3098;
5087225811686310;48.6780;-8.9914;-12.4684;
5087225821686310;48.7024;-8.9792;-12.4806;
5087225831686310;48.7390;-8.9792;-12.4928;
5087225841686310;48.6292;-8.9548;-12.3830;
5087225851686310;48.5682;-8.9060;-12.3098;
5087225861686310;48.5560;-8.9060;-12.3708;
5087225871686310;48.4218;-8.8328;-12.2610;
5087225881686310;48.3486;-8.7230;-12.1268;
5087225891686310;48.2022;-8.6742;-11.9438;
5087225901686310;48.1900;-8.6376;-11.8828;
5087225911686310;48.1412;-8.5156;-11.8462;
5087225921686310;48.1046;-8.4790;-11.7852;
5087225931686310;47.9948;-8.4058;-11.6754;
5087225941686310;47.9460;-8.2960;-11.6144;
5087225951686310;47.9460;-8.2228;-11.6022;
5087225961686310;47.7874;-8.1618;-11.4436;
5087225971686310;47.7386;-8.0642;-11.3948;
5087225981686310;47.6898;-7.9544;-11.2972;
5087225991686310;47.6288;-7.8568;-11.1874;
5087226001686310;47.7630;-7.7226;-11.2240;
5087226011686310;47.7996;-7.6128;-11.2972;
5087226021686310;47.7874;-7.4908;-11.2362;
5087226031686310;47.7874;-7.3444;-11.2118;
5087226041686310;47.8606;-7.1858;-11.2850;
5087226051686310;47.9338;-7.0760;-11.3460;
5087226061686310;47.9704;-6.9540;-11.4802;
5087226071686310;48.0314;-6.8076;-11.5900;
5087226081686310;47.9460;-6.6856;-11.6266;
5087226091686310;47.9216;-6.5270;-11.5412;
5087226101686310;47.8972;-6.4904;-11.4680;
5087226111686310;47.8118;-6.3928;-11.4070;
5087226121686310;47.7996;-6.3318;-11.3582;
5087226131686310;47.7630;-6.2708;-11.2606;
5087226141686310;47.7142;-6.1854;-11.1874;
5087226151686310;47.7020;-6.1488;-11.0654;
5087226161686310;47.6410;-6.1122;-10.9800;
5087226171686310;47.5556;-6.0878;-10.8336;
5087226181686310;47.7020;-5.9170;-11.0166;
5087226191686310;47.7630;-5.8316;-11.0532;
5087226201686310;47.7874;-5.7584;-11.0654;
5087226211686310;47.9338;-5.6730;-11.2728;
5087226221686310;47.9582;-5.5754;-11.2972;
5087226231686310;47.9582;-5.5144;-11.3460;
5087226241686310;48.0436;-5.4412;-11.4192;
5087226251686310;48.2754;-5.3680;-11.6998;
5087226261686310;48.2022;-5.4168;-11.6876;
5087226271686310;48.2510;-5.4046;-11.8584;
5087226281686310;48.3242;-5.3680;-11.9438;
5087226291686310;48.2510;-5.3192;-11.8706;
5087226301686310;48.3242;-5.3436;-11.9316;
5087226311686310;48.3852;-5.3192;-12.0170;
5087226321686310;48.3364;-5.2704;-12.0292;
5087226331686310;48.2876;-5.2826;-12.0292;
5087226341686310;48.2754;-5.2460;-11.9682;
5087226351686310;48.1656;-5.2094;-11.7242;
5087226361686310;48.0436;-5.1972;-11.5778;
5087226371686310;48.1046;-5.2094;-11.6144;
5087226381686310;48.1778;-5.1606;-11.6510;
5087226391686310;48.1534;-5.1240;-11.6754;
5087226401686310;48.1900;-5.1240;-11.6266;
5087226411686310;48.2510;-5.0508;-11.6998;
5087226421686310;48.3242;-5.0020;-11.7364;
5087226431686310;48.4218;-5.0020;-11.8462;
5087226441686310;48.5194;-4.9776;-12.0048;
5087226451686310;48.4706;-4.9898;-11.9316;
5087226461686310;48.3974;-4.9776;-11.9194;
5087226471686310;48.5194;-4.9898;-11.9804;
5087226481686310;48.5804;-5.0020;-12.0658;
5087226491686310;48.5926;-5.0508;-12.0780;
5087226501686310;48.6170;-5.0630;-12.1512;
5087226511686310;48.7268;-5.0508;-12.2976;
5087226521686310;48.8732;-5.0508;-12.3830;
5087226531686310;48.9708;-5.0020;-12.5416;
5087226541686310;48.9708;-5.0020;-12.5660;
5087226551686310;48.8854;-4.9898;-12.4928;
5087226561686310;48.8000;-4.9898;-12.4196;
5087226571686310;48.7512;-4.9776;-12.3220;
5087226581686310;48.7146;-4.9654;-12.2610;
5087226591686310;48.7512;-4.9776;-12.3098;
5087226601686310;48.7634;-5.0264;-12.2976;
5087226611686310;48.8610;-5.0508;-12.4440;
5087226621686310;48.9586;-5.0630;-12.5660;
5087226631686310;49.0562;-5.0874;-12.6758;
5087226641686310;49.1904;-5.0386;-12.8588;
5087226651686310;49.2758;-5.0264;-12.9442;
5087226661686310;49.2758;-5.0630;-12.9930;
5087226671686310;49.1416;-5.1118;-12.8710;
5087226681686310;49.1050;-5.1240;-12.9076;
5087226691686310;49.0806;-5.1362;-12.9442;
5087226701686310;49.1416;-5.1606;-12.9686;
5087226711686310;49.2026;-5.1728;-13.0906;
5087226721686310;49.2636;-5.1972;-13.2370;
5087226731686310;49.2514;-5.2582;-13.2614;
5087226741686310;49.3490;-5.2460;-13.4200;
5087226751686310;49.4710;-5.2216;-13.5908;
5087226761686310;49.4222;-5.1972;-13.5420;
5087226771686310;49.3612;-5.2216;-13.4566;
5087226781686310;49.3490;-5.2582;-13.4688;
5087226791686310;49.2758;-5.2582;-13.3590;
5087226801686310;49.1660;-5.2826;-13.1272;
5087226811686310;49.0928;-5.2826;-13.1028;
5087226821686310;49.1172;-5.2826;-13.1150;
5087226831686310;49.1538;-5.2948;-13.1394;
5087226841686310;49.2026;-5.3192;-13.2370;
5087226851686310;49.2270;-5.3558;-13.2980;
5087226861686310;49.2392;-5.3314;-13.3590;
5087226871686310;49.2514;-5.3802;-13.3956;
5087226881686310;49.3856;-5.4168;-13.6152;
5087226891686310;49.5198;-5.4656;-13.8470;
5087226901686310;49.5442;-5.4900;-13.8714;
5087226911686310;49.5076;-5.5388;-13.8470;
5087226921686310;49.4832;-5.5510;-13.8104;
5087226931686310;49.4954;-5.5144;-13.8226;
5087226941686310;49.3856;-5.5144;-13.6884;
5087226951686310;49.3124;-5.5266;-13.5420;
5087226961686310;49.1904;-5.5754;-13.3712;
5087226971686310;49.0928;-5.5388;-13.1028;
5087226981686310;48.9586;-5.5754;-12.9564;
5087226991686310;48.8976;-5.5266;-12.8588;
5087227001686310;48.8854;-5.5266;-12.8222;
5087227011686310;48.8732;-5.5510;-12.8100;
5087227021686310;48.9464;-5.5510;-12.8710;
5087227031686310;49.0684;-5.4900;-12.9564;
5087227041686310;49.1172;-5.4534;-13.0662;
5087227051686310;49.1538;-5.4656;-13.1882;
5087227061686310;49.1416;-5.4778;-13.1882;
5087227071686310;49.1172;-5.5266;-13.2004;
5087227081686310;49.0074;-5.5998;-13.2248;
5087227091686310;48.8488;-5.6486;-13.0418;
5087227101686310;48.7268;-5.6730;-12.9564;
5087227111686310;48.5438;-5.7828;-12.8832;
5087227121686310;48.3852;-5.8072;-12.6514;
5087227131686310;48.1900;-5.8682;-12.4562;
5087227141686310;48.0192;-5.8682;-12.2854;
5087227151686310;47.9826;-5.8682;-12.1756;
5087227161686310;48.0314;-5.8682;-12.2122;
5087227171686310;48.0802;-5.8804;-12.2366;
5087227181686310;47.8728;-5.9292;-12.0414;
5087227191686310;47.9094;-5.9902;-12.1878;
