Sensor: mmc5603x Magnetometer Non-wakeup
Vendor: memsic
TimestampMag [ns]; MagX [uT]; MagY [uT]; MagZ [uT]
3100129270611147;37.8322;-12.3952;28.8774;
3100129280611147;37.8322;-12.3952;28.8774;
3100129291999272;38.0152;-12.4074;29.2434;
3100129301999272;37.6248;-12.4440;29.5606;
3100129311999272;37.6004;-12.4318;29.5728;
3100129321999272;37.6126;-12.4562;29.7314;
3100129331999272;37.5394;-12.4562;29.8290;
3100129341999272;37.6248;-12.4440;29.7070;
3100129351999272;37.6492;-12.4562;29.7192;
3100129361999272;37.7102;-12.4928;29.6948;
3100129371999272;37.6614;-12.4806;29.6460;
3100129381999272;37.7956;-12.5050;29.5850;
3100129391999272;37.8810;-12.5050;29.5240;
3100129401999272;37.9542;-12.5294;29.2800;
3100129411999272;38.1250;-12.5294;29.1092;
3100129421999272;38.1250;-12.5660;29.0970;
3100129431999272;38.2226;-12.5416;28.9750;
3100129441999272;38.1982;-12.5538;28.9140;
3100129451999272;38.2958;-12.5782;28.7432;
3100129461999272;38.3934;-12.5538;28.5846;
3100129471999272;38.4422;-12.5782;28.5602;
3100129481999272;38.4544;-12.5782;28.6334;
3100129491999272;38.5764;-12.6026;28.4504;
3100129501999272;38.6740;-12.5904;28.4016;
3100129511999272;38.7350;-12.6148;28.4138;
3100129521999272;38.7106;-12.5904;28.3772;
3100129531999272;38.7106;-12.5660;28.4748;
3100129541999272;38.6740;-12.6026;28.4992;
3100129551999272;38.5886;-12.6026;28.5480;
3100129561999272;38.4910;-12.5904;28.5968;
3100129571999272;38.2104;-12.5538;28.9384;
3100129581999272;37.9908;-12.6148;29.1458;
3100129591999272;37.6614;-12.6148;29.5118;
3100129601999272;37.5272;-12.6026;29.8290;
3100129611999272;37.3198;-12.6148;29.9510;
3100129621999272;37.1856;-12.6392;30.1950;
3100129631999272;37.1002;-12.6514;30.3170;
3100129641999272;37.0392;-12.6636;30.4512;
3100129651999272;37.0758;-12.6880;30.4634;
3100129661999272;37.1368;-12.6636;30.4024;
3100129671999272;37.3076;-12.6636;30.1584;
3100129681999272;37.3564;-12.7124;30.1584;
3100129691999272;37.4052;-12.7490;30.2316;
3100129701999272;37.4174;-12.7246;30.1828;
3100129711999272;37.5028;-12.7490;30.0120;
3100129721999272;37.6126;-12.7490;29.7070;
3100129731999272;37.7102;-12.7368;29.5484;
3100129741999272;37.6614;-12.7368;29.6094;
3100129751999272;37.5272;-12.7734;29.7558;
3100129761999272;37.5882;-12.7734;29.6582;
3100129771999272;37.6004;-12.7612;29.5850;
3100129781999272;37.6614;-12.7612;29.5240;
3100129791999272;37.5272;-12.7856;29.7192;
3100129801999272;37.4174;-12.7856;29.9632;
3100129811999272;37.2954;-12.8466;30.1584;
3100129821999272;37.2466;-12.9076;30.2438;
3100129831999272;37.2832;-12.8832;30.3292;
3100129841999272;37.1490;-12.8588;30.5244;
3100129851999272;37.1246;-12.8954;30.5610;
3100129861999272;37.0514;-12.8588;30.6464;
3100129871999272;37.1124;-12.8466;30.6464;
3100129881999272;37.1246;-12.8832;30.6830;
3100129891999272;37.0392;-12.8466;30.7318;
3100129901999272;37.0758;-12.8222;30.6830;
3100129911999272;37.0270;-12.8588;30.6830;
3100129921999272;37.0392;-12.9076;30.6586;
3100129931999272;37.0514;-12.8832;30.6098;
3100129941999272;37.0636;-12.9808;30.5610;
3100129951999272;37.0880;-12.9564;30.5610;
3100129961999272;37.0514;-12.9686;30.5488;
3100129971999272;37.0636;-12.9930;30.5244;
3100129981999272;37.0148;-13.0174;30.5976;
3100129991999272;36.9050;-13.0906;30.5976;
3100130001999272;36.9660;-13.1150;30.5122;
3100130011999272;37.0148;-13.1882;30.5122;
3100130021999272;37.1246;-13.2004;30.4146;
3100130031999272;37.1612;-13.2492;30.2438;
3100130041999272;37.1490;-13.2614;30.2804;
3100130051999272;37.1002;-13.3346;30.3414;
3100130061999272;37.2222;-13.3590;30.2316;
3100130071999272;37.3564;-13.3712;30.1706;
3100130081999272;37.3686;-13.3834;30.2316;
3100130091999272;37.3198;-13.4078;30.2316;
3100130101999272;37.2222;-13.3956;30.4024;
3100130111999272;37.0880;-13.4810;30.5854;
3100130121999272;37.1002;-13.5908;30.5244;
3100130131999272;37.2710;-13.5664;30.3658;
3100130141999272;37.2466;-13.6518;30.2682;
3100130151999272;37.3442;-13.7372;30.0730;
3100130161999272;37.4540;-13.7860;29.8290;
3100130171999272;37.6492;-13.8714;29.6094;
3100130181999272;37.8078;-13.9812;29.2678;
3100130191999272;37.9298;-13.9812;29.0848;
3100130201999272;38.0640;-14.0178;28.9140;
3100130211999272;38.2104;-14.0666;28.6700;
3100130221999272;38.2958;-14.1276;28.6212;
3100130231999272;38.2348;-14.1276;28.7188;
3100130241999272;38.2836;-14.1398;28.6456;
3100130251999272;38.2226;-14.1398;28.6700;
3100130261999272;38.1738;-14.1398;28.7432;
3100130271999272;38.1494;-14.2374;28.7554;
3100130281999272;38.1006;-14.2618;28.7310;
3100130291999272;37.9176;-14.3716;28.8652;
3100130301999272;37.8444;-14.3960;28.9140;
3100130311999272;37.8932;-14.3960;28.8408;
3100130321999272;37.8078;-14.4936;28.9018;
3100130331999272;37.7102;-14.5546;29.0116;
3100130341999272;37.6370;-14.6034;29.0482;
3100130351999272;37.6126;-14.6034;29.0970;
3100130361999272;37.6004;-14.6156;29.1702;
3100130371999272;37.6126;-14.5912;29.1580;
3100130381999272;37.5760;-14.6034;29.2678;
3100130391999272;37.4784;-14.6278;29.3166;
3100130401999272;37.4174;-14.6644;29.4752;
3100130411999272;37.4174;-14.7376;29.4508;
3100130421999272;37.3320;-14.7132;29.5484;
3100130431999272;37.2710;-14.7498;29.6704;
3100130441999272;37.1490;-14.8108;29.8046;
3100130451999272;37.0026;-14.8718;30.0608;
3100130461999272;36.9416;-14.9328;30.0120;
3100130471999272;36.9660;-14.9816;29.9998;
3100130481999272;36.8928;-15.0182;30.0486;
3100130491999272;36.8318;-14.9938;30.1706;
3100130501999272;36.7952;-15.0914;30.2438;
3100130511999272;36.7098;-15.1524;30.2072;
3100130521999272;36.8318;-15.1768;30.0364;
3100130531999272;37.0514;-15.1524;29.6338;
3100130541999272;37.2222;-15.1646;29.4752;
3100130551999272;37.3320;-15.1646;29.3044;
3100130561999272;37.4540;-15.1524;29.0970;
3100130571999272;37.5760;-15.1768;28.8408;
3100130581999272;37.8078;-15.1524;28.5480;
3100130591999272;38.0396;-15.1402;28.3040;
3100130601999272;38.0152;-15.1524;28.3040;
3100130611999272;37.9054;-15.1768;28.3894;
3100130621999272;37.7834;-15.1890;28.4382;
3100130631999272;37.6370;-15.2744;28.6090;
3100130641999272;37.6004;-15.2866;28.6456;
3100130651999272;37.4906;-15.3110;28.7554;
3100130661999272;37.4906;-15.3232;28.7676;
3100130671999272;37.4540;-15.3232;28.8408;
3100130681999272;37.5394;-15.3476;28.7920;
3100130691999272;37.5638;-15.3720;28.8042;
3100130701999272;37.5882;-15.4452;28.8408;
3100130711999272;37.7102;-15.3842;28.7066;
3100130721999272;37.7224;-15.4208;28.6578;
3100130731999272;37.8444;-15.3964;28.5968;
3100130741999272;37.8322;-15.3964;28.5968;
3100130751999272;37.8566;-15.3720;28.5480;
3100130761999272;37.8566;-15.3720;28.5236;
3100130771999272;37.9176;-15.3964;28.4138;
3100130781999272;38.0274;-15.3354;28.2796;
3100130791999272;38.0030;-15.3598;28.3284;
3100130801999272;38.0152;-15.3598;28.3040;
3100130811999272;38.0152;-15.4086;28.2430;
3100130821999272;37.8566;-15.4574;28.4138;
3100130831999272;37.6980;-15.4940;28.5236;
3100130841999272;37.5760;-15.5794;28.5968;
3100130851999272;37.4174;-15.6282;28.7920;
3100130861999272;37.2344;-15.7136;28.9140;
3100130871999272;37.1490;-15.8234;28.9872;
3100130881999272;37.1124;-15.8966;28.9994;
3100130891999272;37.2710;-15.9942;28.7798;
3100130901999272;37.4418;-16.0796;28.5236;
3100130911999272;37.6858;-16.1406;28.2064;
3100130921999272;37.7712;-16.2016;28.1210;
3100130931999272;37.8688;-16.2626;28.0234;
3100130941999272;37.9664;-16.3358;27.8404;
3100130951999272;38.0762;-16.4334;27.5232;
3100130961999272;38.1128;-16.5432;27.4256;
3100130971999272;37.9298;-16.6042;27.5598;
3100130981999272;37.8810;-16.7140;27.5598;
3100130991999272;37.7834;-16.8604;27.6086;
3100131001999272;37.7590;-16.9580;27.4866;
3100131011999272;37.7956;-17.0556;27.3402;
3100131021999272;37.8078;-17.1410;27.3890;
3100131031999272;37.6614;-17.1776;27.6818;
3100131041999272;37.6248;-17.1776;27.7184;
3100131051999272;37.5028;-17.1776;27.8770;
3100131061999272;37.4784;-17.1532;27.9502;
3100131071999272;37.4296;-17.1044;28.0722;
3100131081999272;37.3564;-17.0678;28.2796;
3100131091999272;37.2954;-17.0312;28.4016;
3100131101999272;37.2222;-16.9824;28.4138;
3100131111999272;37.4052;-16.9336;28.1576;
3100131121999272;37.5150;-16.8970;27.9990;
3100131131999272;37.6980;-16.8848;27.6330;
3100131141999272;37.8200;-16.9092;27.5110;
3100131151999272;37.9664;-16.9092;27.2914;
3100131161999272;38.1372;-16.8482;27.0230;
3100131171999272;38.2592;-16.8360;26.7912;
3100131181999272;38.3568;-16.8238;26.7058;
3100131191999272;38.2958;-16.8604;26.7912;
3100131201999272;38.1250;-16.8970;27.0474;
3100131211999272;37.9054;-16.8848;27.3158;
3100131221999272;37.7468;-16.8604;27.5354;
3100131231999272;37.5150;-16.8360;27.9136;
3100131241999272;37.2954;-16.8970;28.1942;
3100131251999272;37.2100;-16.8970;28.4138;
3100131261999272;37.0636;-16.9336;28.5724;
3100131271999272;37.0270;-16.8970;28.5480;
3100131281999272;37.2710;-16.8726;28.2918;
3100131291999272;37.4784;-16.8848;28.1698;
3100131301999272;37.6004;-16.9092;27.9502;
3100131311999272;37.7834;-16.9336;27.5964;
3100131321999272;37.9908;-16.9092;27.3890;
3100131331999272;38.1372;-16.8848;27.2182;
3100131341999272;38.3690;-16.8116;26.9864;
3100131351999272;38.3812;-16.8482;27.0596;
3100131361999272;38.3202;-16.8238;27.0840;
3100131371999272;38.3568;-16.7628;26.9864;
3100131381999272;38.3568;-16.7140;26.9986;
3100131391999272;38.3080;-16.6774;27.0474;
3100131401999272;38.1372;-16.6530;27.2304;
3100131411999272;38.0640;-16.6164;27.3524;
3100131421999272;37.9786;-16.5920;27.4378;
3100131431999272;38.0396;-16.5554;27.3402;
3100131441999272;37.9786;-16.5554;27.3890;
3100131451999272;37.8688;-16.5920;27.5476;
3100131461999272;37.8078;-16.6164;27.6452;
3100131471999272;37.7712;-16.6530;27.7062;
3100131481999272;37.8444;-16.6530;27.6330;
3100131491999272;37.7102;-16.6774;27.6574;
3100131501999272;37.7224;-16.7262;27.6330;
3100131511999272;37.6126;-16.7750;27.7550;
3100131521999272;37.4784;-16.8360;27.8892;
3100131531999272;37.3686;-16.9092;27.9990;
3100131541999272;37.1856;-16.9580;28.1942;
3100131551999272;37.0758;-17.0068;28.3772;
3100131561999272;36.9782;-17.0434;28.4138;
3100131571999272;37.0636;-17.1044;28.3528;
3100131581999272;37.0270;-17.1410;28.3406;
3100131591999272;37.0636;-17.1288;28.2308;
3100131601999272;37.1490;-17.1410;28.1088;
3100131611999272;37.2222;-17.1532;28.0356;
3100131621999272;37.4174;-17.1410;27.7916;
3100131631999272;37.5394;-17.1654;27.5720;
3100131641999272;37.4540;-17.2142;27.6330;
3100131651999272;37.2832;-17.2630;27.8038;
3100131661999272;37.1124;-17.3362;28.0112;
3100131671999272;36.9538;-17.3972;28.2552;
3100131681999272;36.8562;-17.4216;28.4504;
3100131691999272;36.7098;-17.4826;28.5846;
3100131701999272;36.4536;-17.5314;28.9140;
3100131711999272;36.2340;-17.6046;29.1824;
3100131721999272;36.2706;-17.6656;29.1946;
3100131731999272;36.3194;-17.7266;29.1580;
3100131741999272;36.2340;-17.7998;29.1824;
3100131751999272;36.1120;-17.9462;29.3166;
3100131761999272;35.9534;-18.0926;29.4264;
3100131771999272;35.8558;-18.2146;29.4630;
3100131781999272;35.9046;-18.3854;29.3166;
3100131791999272;35.8558;-18.4830;29.2434;
3100131801999272;35.7704;-18.5928;29.2312;
3100131811999272;35.6484;-18.7026;29.3044;
3100131821999272;35.6606;-18.8002;29.3166;
3100131831999272;35.5874;-18.7514;29.3410;
3100131841999272;35.6606;-18.7148;29.2312;
3100131851999272;35.8070;-18.6782;29.0360;
3100131861999272;35.8680;-18.6050;28.9994;
3100131871999272;36.0022;-18.5928;28.9384;
3100131881999272;35.9900;-18.5318;29.0238;
3100131891999272;36.0510;-18.4342;28.9994;
3100131901999272;36.2584;-18.3000;28.8164;
3100131911999272;36.4292;-18.2268;28.6334;
3100131921999272;36.4414;-18.1170;28.6944;
3100131931999272;36.3804;-18.0194;28.8408;
3100131941999272;36.4414;-17.8730;28.8530;
3100131951999272;36.5512;-17.7144;28.7676;
3100131961999272;36.7464;-17.5680;28.5968;
3100131971999272;36.8684;-17.4826;28.4992;
3100131981999272;36.8928;-17.3362;28.4748;
3100131991999272;37.1124;-17.2630;28.2796;
3100132001999272;37.3076;-17.2020;28.0112;
3100132011999272;37.3808;-17.1044;28.0112;
3100132021999272;37.2710;-17.0190;28.1088;
3100132031999272;37.1856;-16.9702;28.3772;
3100132041999272;37.0514;-16.9092;28.5602;
3100132051999272;36.9050;-16.7994;28.7554;
3100132061999272;36.7464;-16.7506;28.9994;
3100132071999272;36.4658;-16.5920;29.4874;
3100132081999272;36.1608;-16.4944;29.9754;
3100132091999272;36.0876;-16.4334;30.1462;
3100132101999272;36.0388;-16.3846;30.3048;
3100132111999272;35.9168;-16.2260;30.4024;
3100132121999272;35.8314;-16.1162;30.5610;
3100132131999272;35.9046;-16.0064;30.6220;
3100132141999272;35.8314;-15.8844;30.7318;
3100132151999272;35.8558;-15.7868;30.7440;
3100132161999272;36.0144;-15.5916;30.6708;
3100132171999272;35.9656;-15.4696;30.7562;
3100132181999272;35.9412;-15.3354;30.8416;
3100132191999272;35.9290;-15.2134;30.9758;
3100132201999272;35.9046;-15.0792;31.1100;
3100132211999272;35.8314;-14.9816;31.2808;
3100132221999272;35.7216;-14.8474;31.5614;
3100132231999272;35.6850;-14.7254;31.6468;
3100132241999272;35.5752;-14.6156;31.8054;
3100132251999272;35.6118;-14.4936;31.8908;
3100132261999272;35.7094;-14.3838;31.8298;
3100132271999272;35.7216;-14.2862;31.8420;
3100132281999272;35.8558;-14.1520;31.7688;
3100132291999272;35.9656;-14.0910;31.5858;
3100132301999272;36.1852;-14.0422;31.2808;
3100132311999272;36.3682;-14.0178;31.0490;
3100132321999272;36.4170;-14.0178;30.9880;
3100132331999272;36.4780;-13.9568;30.9148;
3100132341999272;36.5756;-13.9446;30.8294;
3100132351999272;36.7830;-13.9446;30.5854;
3100132361999272;36.8684;-13.9568;30.4268;
3100132371999272;36.9538;-13.9324;30.3658;
3100132381999272;37.0148;-13.9690;30.3292;
3100132391999272;37.0514;-13.9690;30.3292;
3100132401999272;37.1490;-13.9812;30.1706;
3100132411999272;37.2222;-14.0300;29.9266;
3100132421999272;37.2832;-13.9934;29.8046;
3100132431999272;37.3808;-13.9568;29.7070;
3100132441999272;37.4784;-13.9324;29.6216;
3100132451999272;37.4784;-13.9080;29.5118;
3100132461999272;37.5150;-13.8714;29.5118;
3100132471999272;37.5760;-13.8470;29.4386;
3100132481999272;37.7346;-13.7982;29.2922;
3100132491999272;37.6980;-13.7738;29.4142;
3100132501999272;37.4906;-13.7860;29.6338;
3100132511999272;37.3076;-13.8348;29.8656;
3100132521999272;37.0514;-13.8958;30.1218;
3100132531999272;36.9172;-13.9202;30.4024;
3100132541999272;36.9172;-13.8958;30.3780;
3100132551999272;36.9416;-13.8714;30.3536;
3100132561999272;36.6854;-13.8958;30.6708;
3100132571999272;36.5268;-13.9080;30.8782;
3100132581999272;36.5268;-13.9446;30.9270;
3100132591999272;36.4048;-13.9690;31.0124;
3100132601999272;36.3804;-13.9934;31.0002;
3100132611999272;36.3194;-14.0422;31.0246;
3100132621999272;36.0876;-14.0788;31.1954;
3100132631999272;35.9656;-14.2008;31.2686;
3100132641999272;36.0510;-14.2252;31.0612;
3100132651999272;36.2340;-14.2374;30.7562;
3100132661999272;36.3926;-14.2496;30.5244;
3100132671999272;36.5756;-14.2496;30.3170;
3100132681999272;36.7586;-14.2618;30.1462;
3100132691999272;36.8684;-14.2496;30.0730;
3100132701999272;37.0514;-14.2862;29.9266;
3100132711999272;37.0270;-14.2618;29.9388;
3100132721999272;37.0148;-14.3228;30.0486;
3100132731999272;36.8806;-14.3472;30.2316;
3100132741999272;36.5878;-14.3594;30.5244;
3100132751999272;36.4170;-14.4326;30.7440;
3100132761999272;36.2828;-14.4692;30.9392;
3100132771999272;36.2706;-14.5302;30.8294;
3100132781999272;36.1730;-14.5790;30.8782;
3100132791999272;36.0998;-14.6522;30.9514;
3100132801999272;36.1242;-14.6766;30.9148;
3100132811999272;36.0144;-14.7498;31.0368;
3100132821999272;36.2340;-14.7742;30.8782;
3100132831999272;36.0876;-14.7620;30.9392;
3100132841999272;35.8802;-14.8108;31.1954;
3100132851999272;35.7094;-14.8718;31.5248;
3100132861999272;35.6606;-14.9084;31.6590;
3100132871999272;35.6850;-14.9450;31.6346;
3100132881999272;35.5752;-14.9816;31.7444;
3100132891999272;35.7094;-15.0304;31.5614;
3100132901999272;35.5996;-15.0670;31.6590;
3100132911999272;35.7582;-15.1158;31.5248;
3100132921999272;35.9656;-15.1280;31.2076;
3100132931999272;36.0388;-15.0670;31.0124;
3100132941999272;36.0022;-15.0914;30.9758;
3100132951999272;35.9534;-15.1402;30.9758;
3100132961999272;35.9534;-15.1158;30.9270;
3100132971999272;35.9900;-15.1280;30.8904;
3100132981999272;35.9656;-15.1890;30.8538;
3100132991999272;35.9412;-15.2378;30.7684;
3100133001999272;35.8924;-15.2500;30.7806;
3100133011999272;35.8314;-15.4086;30.8050;
3100133021999272;35.7704;-15.4696;30.7806;
3100133031999272;35.7460;-15.4696;30.8050;
3100133041999272;35.6362;-15.5550;30.8416;
3100133051999272;35.5508;-15.6282;30.7928;
3100133061999272;35.6484;-15.6892;30.6464;
3100133071999272;35.5752;-15.7502;30.6952;
3100133081999272;35.5142;-15.8600;30.6708;
3100133091999272;35.4898;-15.8844;30.6098;
3100133101999272;35.6240;-15.8966;30.4146;
3100133111999272;35.7216;-15.9454;30.3048;
3100133121999272;35.7826;-15.9942;30.1218;
3100133131999272;35.8070;-15.9942;30.0974;
3100133141999272;35.7338;-16.0430;30.1096;
3100133151999272;35.7460;-16.1040;30.0364;
3100133161999272;35.7826;-16.1894;29.9876;
3100133171999272;35.8070;-16.2260;29.9754;
3100133181999272;35.7094;-16.3358;30.0730;
3100133191999272;35.5874;-16.4578;30.1340;
3100133201999272;35.5996;-16.5920;30.1340;
3100133211999272;35.5874;-16.7262;30.1462;
3100133221999272;35.4532;-16.8360;30.2926;
3100133231999272;35.5264;-16.9336;30.1828;
3100133241999272;35.5386;-17.0800;30.1218;
3100133251999272;35.5142;-17.2508;30.0486;
3100133261999272;35.4776;-17.3850;30.0608;
3100133271999272;35.4410;-17.5070;30.0486;
3100133281999272;35.2214;-17.6534;30.1584;
3100133291999272;35.0750;-17.8120;30.2316;
3100133301999272;35.0506;-17.9340;30.1340;
3100133311999272;34.8920;-18.0682;30.1706;
3100133321999272;34.8310;-18.1048;30.0608;
3100133331999272;34.9286;-18.1902;29.9022;
3100133341999272;35.0262;-18.3244;29.6582;
3100133351999272;35.1604;-18.3488;29.3410;
3100133361999272;35.5142;-18.4342;28.9628;
3100133371999272;35.7094;-18.5074;28.6456;
3100133381999272;35.9534;-18.6050;28.3406;
3100133391999272;36.1730;-18.6660;28.0844;
3100133401999272;36.2706;-18.7514;27.9502;
3100133411999272;36.2828;-18.8368;27.8526;
3100133421999272;36.3560;-18.9100;27.7062;
3100133431999272;36.4536;-19.0442;27.6208;
3100133441999272;36.4414;-19.0564;27.6208;
3100133451999272;36.5634;-19.0930;27.3280;
3100133461999272;36.6610;-19.1418;27.1450;
3100133471999272;36.7952;-19.2272;26.9742;
3100133481999272;36.8928;-19.3126;26.8522;
3100133491999272;36.8928;-19.3248;26.8278;
3100133501999272;36.8684;-19.3126;26.8278;
3100133511999272;36.7952;-19.3126;26.9010;
3100133521999272;36.9050;-19.3370;26.7668;
3100133531999272;36.8318;-19.3614;26.9254;
3100133541999272;36.8318;-19.3858;26.9254;
3100133551999272;36.7708;-19.3492;26.9742;
3100133561999272;36.7952;-19.2882;26.9742;
3100133571999272;36.8928;-19.2638;26.8644;
3100133581999272;36.9172;-19.2760;26.6936;
3100133591999272;36.9904;-19.2516;26.6936;
3100133601999272;36.8440;-19.2150;26.7180;
3100133611999272;36.7586;-19.1906;26.7302;
3100133621999272;36.6854;-19.1540;26.8034;
3100133631999272;36.6732;-19.1296;26.6204;
3100133641999272;36.7098;-19.1540;26.4984;
3100133651999272;36.7830;-19.1418;26.4496;
3100133661999272;36.8684;-19.0930;26.4374;
3100133671999272;36.9172;-19.0686;26.2788;
3100133681999272;37.0148;-19.1174;26.3032;
3100133691999272;37.1612;-19.1174;26.2422;
3100133701999272;37.1246;-19.1296;26.3886;
3100133711999272;37.2344;-19.0564;26.4618;
3100133721999272;37.2100;-19.0442;26.4374;
3100133731999272;37.1490;-19.0564;26.4740;
3100133741999272;37.1124;-19.0808;26.5594;
3100133751999272;37.1490;-19.0442;26.5594;
3100133761999272;37.2222;-18.9954;26.3642;
3100133771999272;37.3076;-18.9222;26.2422;
3100133781999272;37.3198;-18.8978;26.1568;
3100133791999272;37.3320;-18.8856;26.1324;
3100133801999272;37.3442;-18.8368;26.2666;
3100133811999272;37.3320;-18.7758;26.3154;
3100133821999272;37.2832;-18.7026;26.4130;
3100133831999272;37.0758;-18.6782;26.6448;
3100133841999272;36.9294;-18.5562;27.0108;
3100133851999272;36.6976;-18.4586;27.3646;
3100133861999272;36.6854;-18.3488;27.4622;
3100133871999272;36.4902;-18.2634;27.7916;
3100133881999272;36.3316;-18.1414;28.0478;
3100133891999272;36.2340;-18.0072;28.3406;
3100133901999272;36.2340;-17.8974;28.4016;
3100133911999272;36.3682;-17.7266;28.3528;
3100133921999272;36.2706;-17.6290;28.4992;
3100133931999272;36.2340;-17.4948;28.6822;
3100133941999272;36.1364;-17.2996;28.8774;
3100133951999272;36.1242;-17.1166;28.9872;
3100133961999272;36.0876;-16.9458;29.0970;
3100133971999272;36.1364;-16.7628;29.1580;
3100133981999272;35.9778;-16.5798;29.4874;
3100133991999272;35.8802;-16.3724;29.7436;
3100134001999272;35.8314;-16.1650;29.8534;
3100134011999272;35.8558;-15.9698;29.8900;
3100134021999272;35.8802;-15.7868;29.9388;
3100134031999272;35.8802;-15.6770;30.0364;
3100134041999272;36.1608;-15.5428;29.7558;
3100134051999272;36.0754;-15.4330;29.8778;
3100134061999272;36.0876;-15.2866;29.9388;
3100134071999272;35.9412;-15.2744;30.1950;
3100134081999272;35.9900;-15.2012;30.2682;
3100134091999272;36.0388;-15.2256;30.2316;
3100134101999272;36.0510;-15.2500;30.2560;
3100134111999272;36.1608;-15.2378;30.1828;
3100134121999272;36.0022;-15.2134;30.3414;
3100134131999272;36.1120;-15.2500;30.2438;
3100134141999272;36.1974;-15.2866;30.0730;
3100134151999272;36.4170;-15.2500;29.7680;
3100134161999272;36.4902;-15.2500;29.6216;
3100134171999272;36.5268;-15.1524;29.5118;
3100134181999272;36.6244;-15.1158;29.4142;
3100134191999272;36.5512;-15.0792;29.4020;
3100134201999272;36.4780;-15.0792;29.5606;
3100134211999272;36.4658;-15.0426;29.5728;
3100134221999272;36.4536;-15.0670;29.5972;
3100134231999272;36.4048;-15.0426;29.6338;
3100134241999272;36.3926;-15.0304;29.6582;
3100134251999272;36.4658;-15.0914;29.7070;
3100134261999272;36.4658;-15.0914;29.6094;
3100134271999272;36.6244;-15.0914;29.5118;
3100134281999272;36.7464;-15.1036;29.3288;
3100134291999272;36.8684;-15.0670;29.1580;
3100134301999272;36.9172;-15.0670;29.0604;
3100134311999272;36.9904;-15.0792;28.8774;
3100134321999272;37.1734;-15.1036;28.7432;
3100134331999272;37.1368;-15.1158;28.6944;
3100134341999272;37.1734;-15.1646;28.7188;
3100134351999272;37.1246;-15.2012;28.7066;
3100134361999272;37.1124;-15.1890;28.6944;
3100134371999272;37.0392;-15.2012;28.7432;
3100134381999272;37.1002;-15.1768;28.7554;
3100134391999272;37.0514;-15.1646;28.9140;
3100134401999272;36.9172;-15.1524;29.0116;
3100134411999272;36.9416;-15.1524;29.0116;
3100134421999272;36.8928;-15.1158;29.0360;
3100134431999272;36.8196;-15.0426;29.1336;
3100134441999272;36.8318;-15.0060;29.2434;
3100134451999272;36.8928;-14.9450;29.2312;
3100134461999272;36.8684;-14.8962;29.2800;
3100134471999272;36.9294;-14.9206;29.2556;
3100134481999272;37.0026;-14.8474;29.1824;
3100134491999272;36.9782;-14.8108;29.2190;
3100134501999272;37.1368;-14.7254;29.0970;
3100134511999272;37.2954;-14.6888;28.9506;
3100134521999272;37.3442;-14.6400;28.7920;
3100134531999272;37.4296;-14.6644;28.7432;
3100134541999272;37.4052;-14.6644;28.6822;
3100134551999272;37.2710;-14.6522;28.7798;
3100134561999272;37.1124;-14.6766;29.0482;
3100134571999272;36.9050;-14.6400;29.3166;
3100134581999272;36.6366;-14.6522;29.5972;
3100134591999272;36.3438;-14.6278;29.8656;
3100134601999272;35.9046;-14.6888;30.4268;
3100134611999272;35.5996;-14.7376;30.7928;
3100134621999272;35.4654;-14.7498;30.9514;
3100134631999272;35.4532;-14.7254;30.9758;
3100134641999272;35.3556;-14.7620;30.9758;
3100134651999272;35.3312;-14.7864;30.9514;
3100134661999272;35.2336;-14.8352;30.9880;
3100134671999272;35.2092;-14.8840;31.0978;
3100134681999272;35.3922;-14.8596;30.9392;
3100134691999272;35.4166;-14.8596;30.8660;
3100134701999272;35.4410;-14.8474;30.8416;
3100134711999272;35.4044;-14.8840;31.0124;
3100134721999272;35.4166;-14.8596;31.0246;
3100134731999272;35.5386;-14.8962;30.9270;
3100134741999272;35.7338;-14.8962;30.8538;
3100134751999272;35.9900;-14.9084;30.5000;
3100134761999272;36.1730;-14.9084;30.2072;
3100134771999272;36.3438;-14.8840;30.0364;
3100134781999272;36.5146;-14.9450;29.8656;
3100134791999272;36.6000;-14.9450;29.6704;
3100134801999272;36.5146;-15.0060;29.7192;
3100134811999272;36.3438;-15.0182;29.8656;
3100134821999272;36.1730;-15.1158;30.0120;
3100134831999272;35.9656;-15.1890;30.3048;
3100134841999272;35.9046;-15.2866;30.3902;
3100134851999272;35.7460;-15.3842;30.5122;
3100134861999272;35.5020;-15.4574;30.7806;
3100134871999272;35.4776;-15.5062;30.8294;
3100134881999272;35.5386;-15.5306;30.6586;
3100134891999272;35.6484;-15.6404;30.5366;
3100134901999272;35.6728;-15.6648;30.3780;
3100134911999272;35.6972;-15.7136;30.3048;
3100134921999272;35.6972;-15.7746;30.2438;
3100134931999272;35.7582;-15.8356;30.1584;
3100134941999272;35.9046;-15.9210;29.9632;
3100134951999272;35.9656;-16.0064;29.7558;
3100134961999272;36.1242;-16.0918;29.6338;
3100134971999272;36.1730;-16.1040;29.4996;
3100134981999272;36.2340;-16.1894;29.4142;
3100134991999272;36.1852;-16.2992;29.3532;
3100135001999272;36.0632;-16.4090;29.3532;
3100135011999272;35.9534;-16.4578;29.4264;
3100135021999272;35.8680;-16.5310;29.4508;
3100135031999272;35.8802;-16.6042;29.4264;
3100135041999272;35.8192;-16.7018;29.4264;
3100135051999272;35.7948;-16.8360;29.4386;
3100135061999272;35.7216;-16.8848;29.4508;
3100135071999272;35.7704;-16.9092;29.4508;
3100135081999272;35.7948;-16.9092;29.4874;
3100135091999272;35.8436;-17.0190;29.2922;
3100135101999272;35.8802;-17.0800;29.2678;
3100135111999272;35.8314;-17.1532;29.2678;
3100135121999272;35.6240;-17.2386;29.4874;
3100135131999272;35.4532;-17.2996;29.6338;
3100135141999272;35.2580;-17.3362;29.8778;
3100135151999272;35.1116;-17.3972;29.9998;
3100135161999272;34.8554;-17.4826;30.2194;
3100135171999272;34.5870;-17.4826;30.6098;
3100135181999272;34.3186;-17.5070;30.8538;
3100135191999272;34.0868;-17.5070;31.0856;
3100135201999272;34.0624;-17.4826;31.0490;
3100135211999272;34.0868;-17.4948;31.0368;
3100135221999272;34.0624;-17.5314;31.0002;
3100135231999272;33.9648;-17.5436;31.0734;
3100135241999272;34.0624;-17.5436;30.9514;
3100135251999272;34.1478;-17.5802;30.7806;
3100135261999272;34.2698;-17.5924;30.6464;
3100135271999272;34.5504;-17.6046;30.3170;
3100135281999272;34.7578;-17.5924;30.0608;
3100135291999272;34.8920;-17.5924;29.8534;
3100135301999272;35.1970;-17.6290;29.4996;
3100135311999272;35.3556;-17.6534;29.2922;
3100135321999272;35.4532;-17.6534;29.1336;
3100135331999272;35.6118;-17.6046;28.9872;
3100135341999272;35.6606;-17.5924;28.8286;
3100135351999272;35.4410;-17.6290;29.0604;
3100135361999272;35.2946;-17.6900;29.1336;
3100135371999272;35.2214;-17.7266;29.1580;
3100135381999272;35.1482;-17.7510;29.1702;
3100135391999272;35.1726;-17.7876;29.0360;
3100135401999272;35.1238;-17.8852;29.0238;
3100135411999272;35.0018;-17.9828;29.0848;
3100135421999272;34.9408;-18.0804;29.1214;
3100135431999272;34.9408;-18.1292;29.0238;
3100135441999272;34.8798;-18.1780;29.0970;
3100135451999272;34.9042;-18.2146;29.0238;
3100135461999272;34.9652;-18.2146;28.9140;
3100135471999272;35.0262;-18.2268;28.8164;
3100135481999272;35.1726;-18.1902;28.6090;
3100135491999272;35.1360;-18.2024;28.6212;
3100135501999272;35.1848;-18.2268;28.5846;
3100135511999272;35.1726;-18.2878;28.5968;
3100135521999272;35.1360;-18.2878;28.5968;
3100135531999272;35.0140;-18.2512;28.7554;
3100135541999272;34.8188;-18.2756;29.0238;
3100135551999272;34.6480;-18.2878;29.1580;
3100135561999272;34.4284;-18.3000;29.3654;
3100135571999272;34.4772;-18.2878;29.2556;
3100135581999272;34.3796;-18.2390;29.2800;
3100135591999272;34.3186;-18.1902;29.2312;
3100135601999272;34.3308;-18.2024;29.1580;
3100135611999272;34.3796;-18.2756;29.0116;
3100135621999272;34.3430;-18.3244;28.8652;
3100135631999272;34.2088;-18.3488;29.0116;
3100135641999272;34.1600;-18.3732;29.1336;
3100135651999272;34.0990;-18.3976;29.1458;
3100135661999272;34.0502;-18.3976;29.2556;
3100135671999272;34.0990;-18.3366;29.2800;
3100135681999272;34.0136;-18.2756;29.4874;
3100135691999272;33.9038;-18.1292;29.6826;
3100135701999272;33.8306;-17.9950;29.8900;
3100135711999272;33.8916;-17.8608;29.8900;
3100135721999272;34.0258;-17.7754;29.7680;
3100135731999272;34.1112;-17.6290;29.8412;
3100135741999272;34.2454;-17.4948;29.7436;
3100135751999272;34.3796;-17.3606;29.5606;
3100135761999272;34.5260;-17.2020;29.4020;
3100135771999272;34.6846;-17.0800;29.2922;
3100135781999272;34.8798;-16.9458;29.1580;
3100135791999272;34.9530;-16.7506;29.0970;
3100135801999272;34.9774;-16.4700;29.1336;
3100135811999272;34.9652;-16.2260;29.1214;
3100135821999272;34.9408;-15.9454;29.2068;
3100135831999272;34.9896;-15.7258;29.2556;
3100135841999272;35.1360;-15.4940;29.1824;
3100135851999272;35.1360;-15.2622;29.2678;
3100135861999272;35.0018;-15.0060;29.4996;
3100135871999272;34.9530;-14.7376;29.7436;
3100135881999272;34.8188;-14.5180;30.0364;
3100135891999272;34.7456;-14.2984;30.2194;
3100135901999272;34.7456;-14.0788;30.3292;
3100135911999272;34.5626;-13.7982;30.6342;
3100135921999272;34.4162;-13.5176;30.8660;
3100135931999272;34.3186;-13.2614;31.0368;
3100135941999272;34.2942;-13.0418;31.0246;
3100135951999272;34.3308;-12.8588;30.9270;
3100135961999272;34.3552;-12.6880;30.8294;
3100135971999272;34.3186;-12.5538;30.9026;
3100135981999272;34.2576;-12.4440;30.9026;
3100135991999272;34.2698;-12.3708;30.8538;
3100136001999272;34.1966;-12.3098;30.8538;
3100136011999272;34.2454;-12.2976;30.6952;
3100136021999272;34.3308;-12.2366;30.5122;
3100136031999272;34.3918;-12.2732;30.2682;
3100136041999272;34.4772;-12.3098;30.0364;
3100136051999272;34.5748;-12.3464;29.7314;
3100136061999272;34.7334;-12.3464;29.4386;
3100136071999272;34.8432;-12.3830;29.1946;
3100136081999272;34.9164;-12.4318;28.9872;
3100136091999272;34.9164;-12.4318;28.8408;
3100136101999272;35.0506;-12.4074;28.5846;
3100136111999272;35.1482;-12.3586;28.3406;
3100136121999272;35.1970;-12.2610;28.1088;
3100136131999272;35.2702;-12.1512;27.9502;
3100136141999272;35.2092;-12.0658;27.8404;
3100136151999272;35.2702;-11.8584;27.6940;
3100136161999272;35.4166;-11.6388;27.4134;
3100136171999272;35.4898;-11.4314;27.2792;
3100136181999272;35.4044;-11.2606;27.3036;
3100136191999272;35.2214;-11.0532;27.5232;
3100136201999272;35.0994;-10.8580;27.6208;
3100136211999272;35.0872;-10.6506;27.5964;
3100136221999272;35.1116;-10.4920;27.5964;
3100136231999272;35.2458;-10.3578;27.4256;
3100136241999272;35.2702;-10.1626;27.3768;
3100136251999272;35.4166;-10.0040;27.1816;
3100136261999272;35.5264;-9.8576;27.0474;
3100136271999272;35.7338;-9.7478;26.8156;
3100136281999272;35.9168;-9.6624;26.5838;
3100136291999272;36.0876;-9.5282;26.4008;
3100136301999272;36.0876;-9.3574;26.2666;
3100136311999272;35.9412;-9.2110;26.2910;
3100136321999272;35.7826;-9.1500;26.4252;
3100136331999272;35.6728;-9.0768;26.4984;
3100136341999272;35.5264;-8.9914;26.5228;
3100136351999272;35.4654;-8.8938;26.4618;
3100136361999272;35.3922;-8.7352;26.5228;
3100136371999272;35.2702;-8.6132;26.5716;
3100136381999272;35.2824;-8.5034;26.4984;
3100136391999272;35.2336;-8.4180;26.5472;
3100136401999272;35.2458;-8.2716;26.3276;
3100136411999272;35.2092;-8.1008;26.2422;
3100136421999272;35.2336;-7.9422;26.1446;
3100136431999272;35.0628;-7.7470;26.2544;
3100136441999272;34.9042;-7.5640;26.3764;
3100136451999272;34.6968;-7.4298;26.5228;
3100136461999272;34.6602;-7.2712;26.5472;
3100136471999272;34.6236;-7.0516;26.4984;
3100136481999272;34.5504;-6.8686;26.5960;
3100136491999272;34.4772;-6.6978;26.6936;
3100136501999272;34.3796;-6.5392;26.7668;
3100136511999272;34.3308;-6.3928;26.8278;
3100136521999272;34.2454;-6.2342;26.7668;
3100136531999272;34.2332;-6.0512;26.8034;
3100136541999272;33.9282;-5.8438;27.0596;
3100136551999272;33.6720;-5.6364;27.3036;
3100136561999272;33.4524;-5.3924;27.5232;
3100136571999272;33.1840;-5.1240;27.7916;
3100136581999272;33.0498;-4.7824;27.9380;
3100136591999272;32.9644;-4.4652;27.9258;
3100136601999272;32.7448;-4.1236;28.1942;
3100136611999272;32.5496;-3.8186;28.2552;
3100136621999272;32.6228;-3.4648;27.9746;
3100136631999272;32.6350;-3.1354;27.8038;
3100136641999272;32.7448;-2.8060;27.4988;
3100136651999272;32.8912;-2.5376;27.1450;
3100136661999272;32.9888;-2.2814;26.8766;
3100136671999272;33.0498;-1.9398;26.7058;
3100136681999272;33.2450;-1.6348;26.3276;
3100136691999272;33.4646;-1.2688;26.0470;
3100136701999272;33.4036;-1.0126;26.1080;
3100136711999272;33.3060;-0.7320;26.2422;
3100136721999272;33.1352;-0.4514;26.4984;
3100136731999272;32.8790;-0.1708;26.8400;
3100136741999272;32.5740;0.0854;27.2182;
3100136751999272;32.2324;0.2806;27.6330;
3100136761999272;31.9274;0.5124;28.0112;
3100136771999272;31.6468;0.6832;28.2674;
3100136781999272;31.4272;0.8906;28.4992;
3100136791999272;31.2930;1.0126;28.6334;
3100136801999272;31.0612;1.1102;28.8652;
3100136811999272;30.9392;1.2688;28.9262;
3100136821999272;30.9026;1.4274;28.9628;
3100136831999272;30.8050;1.5616;29.0238;
3100136841999272;30.7440;1.6592;29.0116;
3100136851999272;30.7318;1.7812;28.9628;
3100136861999272;30.6220;1.9032;29.1214;
3100136871999272;30.6342;2.0252;29.0482;
3100136881999272;30.7318;2.1594;28.9262;
3100136891999272;30.7928;2.2448;28.8530;
3100136901999272;30.9636;2.3302;28.5846;
3100136911999272;31.2564;2.4278;28.1820;
3100136921999272;31.4760;2.4766;28.0112;
3100136931999272;31.5614;2.5254;27.9624;
3100136941999272;31.8176;2.5864;27.6330;
3100136951999272;32.0738;2.6474;27.3890;
3100136961999272;32.1470;2.7328;27.2426;
3100136971999272;32.2812;2.7938;27.1084;
3100136981999272;32.1958;2.8060;27.2548;
3100136991999272;32.0494;2.8426;27.4866;
3100137001999272;32.0616;2.8792;27.3890;
3100137011999272;32.0494;2.8792;27.3768;
3100137021999272;31.9884;2.8548;27.4500;
3100137031999272;31.8298;2.8670;27.6452;
3100137041999272;31.9518;2.8182;27.6086;
3100137051999272;32.1104;2.7816;27.4744;
3100137061999272;32.2812;2.8060;27.3280;
3100137071999272;32.5740;2.8304;27.0352;
3100137081999272;32.7936;2.9036;26.9010;
3100137091999272;32.9522;2.9036;26.8156;
3100137101999272;33.1962;2.9890;26.6692;
3100137111999272;33.4768;3.0134;26.4252;
3100137121999272;33.5988;3.0988;26.3154;
3100137131999272;33.6964;3.2086;26.3032;
3100137141999272;33.8550;3.2818;26.2910;
3100137151999272;33.8306;3.3184;26.3398;
3100137161999272;33.8672;3.3428;26.3764;
3100137171999272;33.9648;3.4648;26.3398;
3100137181999272;33.9892;3.5624;26.4374;
3100137191999272;34.0014;3.6600;26.4740;
3100137201999272;34.0136;3.7698;26.5350;
3100137211999272;34.0258;3.8552;26.5228;
3100137221999272;34.0136;3.9406;26.5716;
3100137231999272;34.1478;4.0626;26.5716;
3100137241999272;34.1600;4.1114;26.6448;
3100137251999272;34.1844;4.1968;26.6814;
3100137261999272;34.2576;4.2456;26.6936;
3100137271999272;34.2942;4.2944;26.7424;
3100137281999272;34.4406;4.3798;26.7546;
3100137291999272;34.5504;4.4530;26.7912;
3100137301999272;34.6236;4.5140;26.7546;
3100137311999272;34.7822;4.5506;26.5350;
3100137321999272;34.9408;4.6116;26.5472;
3100137331999272;35.1360;4.6482;26.4740;
3100137341999272;35.3434;4.7092;26.3520;
3100137351999272;35.4532;4.7458;26.4008;
3100137361999272;35.4044;4.7092;26.6082;
3100137371999272;35.4532;4.6848;26.7180;
3100137381999272;35.5386;4.6848;26.7668;
3100137391999272;35.5264;4.6482;27.0474;
3100137401999272;35.4410;4.6482;27.1450;
3100137411999272;35.3800;4.5750;27.3768;
3100137421999272;35.2580;4.5262;27.7184;
3100137431999272;35.2214;4.4896;27.9136;
3100137441999272;35.3068;4.4774;27.9014;
3100137451999272;35.2824;4.4042;27.9746;
3100137461999272;35.2824;4.3554;28.1454;
3100137471999272;35.1970;4.2944;28.3284;
3100137481999272;35.1238;4.2456;28.6212;
3100137491999272;35.0506;4.2578;28.7554;
3100137501999272;35.0628;4.1846;28.7188;
3100137511999272;35.1116;4.1358;28.7066;
3100137521999272;34.9286;4.0138;28.9872;
3100137531999272;34.6846;3.9772;29.3654;
3100137541999272;34.5626;3.9040;29.5972;
3100137551999272;34.4162;3.8308;29.8900;
3100137561999272;34.3430;3.7088;30.0852;
3100137571999272;34.2454;3.5746;30.3902;
3100137581999272;34.0746;3.4526;30.6464;
3100137591999272;33.9282;3.3306;30.9392;
3100137601999272;33.8794;3.2330;31.0978;
3100137611999272;33.8916;3.0134;31.1100;
3100137621999272;33.7818;2.8060;31.2442;
3100137631999272;33.7818;2.6108;31.3052;
3100137641999272;33.7940;2.4278;31.3296;
3100137651999272;33.7086;2.1350;31.4516;
3100137661999272;33.6598;1.8666;31.7078;
3100137671999272;33.5500;1.5616;31.8786;
3100137681999272;33.5866;1.2688;32.0006;
3100137691999272;33.5988;0.9882;32.0738;
3100137701999272;33.4768;0.6832;32.4276;
3100137711999272;33.2328;0.3050;32.8302;
3100137721999272;33.0376;-0.1098;33.1962;
3100137731999272;32.9766;-0.3904;33.4036;
3100137741999272;32.8180;-0.7442;33.6232;
3100137751999272;32.7692;-1.0980;33.7818;
3100137761999272;32.7326;-1.3908;33.8184;
3100137771999272;32.6838;-1.6714;33.9892;
3100137781999272;32.7814;-1.9398;33.9160;
3100137791999272;32.8790;-2.1838;33.9038;
3100137801999272;32.8790;-2.3790;33.8794;
3100137811999272;32.9156;-2.5742;33.9526;
3100137821999272;33.0864;-2.7206;33.8672;
3100137831999272;33.0620;-2.8548;33.9404;
3100137841999272;33.0864;-3.0378;34.1234;
3100137851999272;33.1230;-3.2208;34.2454;
3100137861999272;33.2206;-3.3916;34.2332;
3100137871999272;33.4402;-3.4892;34.0868;
3100137881999272;33.6720;-3.5746;33.9648;
3100137891999272;33.8062;-3.7576;33.9160;
3100137901999272;33.8916;-3.9406;33.9038;
3100137911999272;34.0990;-4.0870;33.8062;
3100137921999272;34.2576;-4.2700;33.7086;
3100137931999272;34.3430;-4.4286;33.5988;
3100137941999272;34.5260;-4.5506;33.5500;
3100137951999272;34.6480;-4.7336;33.5012;
3100137961999272;34.8432;-4.8556;33.3914;
3100137971999272;35.0750;-4.9044;33.1230;
3100137981999272;35.2214;-5.0020;33.0742;
3100137991999272;35.2336;-5.0630;33.1474;
3100138001999272;35.1482;-5.0630;33.3426;
3100138011999272;35.1604;-5.0386;33.5256;
3100138021999272;35.0140;-5.0142;33.7208;
3100138031999272;35.0140;-4.9288;33.7818;
3100138041999272;34.9530;-4.8434;34.0014;
3100138051999272;34.8920;-4.7214;34.2698;
3100138061999272;34.7944;-4.5384;34.4894;
3100138071999272;34.9042;-4.3432;34.4650;
3100138081999272;35.0140;-4.1236;34.4528;
3100138091999272;35.1970;-3.8796;34.3186;
3100138101999272;35.3678;-3.6112;34.2576;
3100138111999272;35.5020;-3.3306;34.2332;
3100138121999272;35.6850;-3.0256;34.0868;
3100138131999272;35.9046;-2.8670;33.8794;
3100138141999272;36.1974;-2.6596;33.5500;
3100138151999272;36.4048;-2.5132;33.4280;
3100138161999272;36.7342;-2.3790;33.0498;
3100138171999272;36.8196;-2.3302;32.9400;
3100138181999272;37.0270;-2.3424;32.7326;
3100138191999272;37.1002;-2.4156;32.6350;
3100138201999272;37.1490;-2.5376;32.5740;
3100138211999272;37.1368;-2.6230;32.6350;
3100138221999272;37.0758;-2.7572;32.7814;
3100138231999272;37.0636;-2.8670;32.8668;
3100138241999272;36.9904;-3.0500;33.0986;
3100138251999272;36.9782;-3.1964;33.1962;
3100138261999272;36.9660;-3.2818;33.3060;
3100138271999272;36.9172;-3.4038;33.5012;
3100138281999272;36.8196;-3.5380;33.7208;
3100138291999272;36.7098;-3.6234;33.8794;
3100138301999272;36.7098;-3.6966;33.9404;
3100138311999272;36.6366;-3.7454;34.0014;
3100138321999272;36.5756;-3.7454;34.0624;
3100138331999272;36.5024;-3.6844;34.2454;
3100138341999272;36.5146;-3.6722;34.2820;
3100138351999272;36.5756;-3.6112;34.2088;
3100138361999272;36.6244;-3.4648;34.2088;
3100138371999272;36.7464;-3.3550;34.0990;
3100138381999272;36.7342;-3.2452;34.0868;
3100138391999272;36.7952;-3.1110;34.0990;
3100138401999272;36.8318;-3.0012;34.0624;
3100138411999272;36.9416;-2.8914;33.9770;
3100138421999272;36.9050;-2.7450;34.0624;
3100138431999272;36.7952;-2.6108;34.2454;
3100138441999272;36.6732;-2.4888;34.3674;
3100138451999272;36.6000;-2.3424;34.4650;
3100138461999272;36.6244;-2.2326;34.5504;
3100138471999272;36.6732;-2.1594;34.4894;
3100138481999272;36.7342;-2.0862;34.4162;
3100138491999272;36.7830;-2.0008;34.2820;
3100138501999272;36.9050;-1.9886;34.1112;
3100138511999272;37.0270;-1.9886;33.8306;
3100138521999272;37.1734;-2.0252;33.5988;
3100138531999272;37.2710;-2.0618;33.5256;
3100138541999272;37.3442;-2.0862;33.3548;
3100138551999272;37.3198;-2.1472;33.2938;
3100138561999272;37.2832;-2.2814;33.3304;
3100138571999272;37.3076;-2.4522;33.3304;
3100138581999272;37.1490;-2.5742;33.3792;
3100138591999272;37.1612;-2.6962;33.3548;
3100138601999272;37.1734;-2.8304;33.2328;
3100138611999272;37.1124;-3.0256;33.1718;
3100138621999272;37.0026;-3.2086;33.1352;
3100138631999272;37.0148;-3.3672;33.1108;
3100138641999272;36.9782;-3.5136;33.0132;
3100138651999272;36.8806;-3.6478;33.0010;
3100138661999272;36.9172;-3.7576;32.9400;
3100138671999272;36.9294;-3.8430;32.8424;
3100138681999272;37.0148;-3.9040;32.8058;
3100138691999272;37.1978;-3.9406;32.6106;
3100138701999272;37.3076;-3.9772;32.5374;
3100138711999272;37.2588;-3.9406;32.5496;
3100138721999272;37.1490;-3.9162;32.6472;
3100138731999272;37.0636;-3.8308;32.7448;
3100138741999272;36.8684;-3.7820;32.9156;
3100138751999272;36.5878;-3.7210;33.2084;
3100138761999272;36.2340;-3.6356;33.5744;
3100138771999272;35.8802;-3.5014;33.9648;
3100138781999272;35.7094;-3.3672;34.1112;
3100138791999272;35.6118;-3.2086;34.0990;
3100138801999272;35.6362;-3.0622;34.0136;
3100138811999272;35.7094;-2.8914;33.9160;
3100138821999272;35.8802;-2.6596;33.7208;
3100138831999272;36.0632;-2.4400;33.5012;
3100138841999272;36.2462;-2.2326;33.2694;
3100138851999272;36.3682;-2.0130;33.0010;
3100138861999272;36.3926;-1.7812;32.9278;
3100138871999272;36.5268;-1.5982;32.8424;
3100138881999272;36.6000;-1.4030;32.7326;
3100138891999272;36.6366;-1.2078;32.5862;
3100138901999272;36.7098;-1.1224;32.4764;
3100138911999272;36.7342;-1.0248;32.3910;
3100138921999272;36.7708;-0.9516;32.3300;
3100138931999272;36.6854;-0.9272;32.4276;
3100138941999272;36.7464;-0.8784;32.2934;
3100138951999272;36.6976;-0.9028;32.3422;
3100138961999272;36.6732;-0.8906;32.4276;
3100138971999272;36.5146;-0.9272;32.5252;
3100138981999272;36.3682;-0.8784;32.6350;
3100138991999272;36.3194;-0.9028;32.6716;
3100139001999272;36.3560;-0.9272;32.5984;
3100139011999272;36.5634;-0.8662;32.3910;
3100139021999272;36.5146;-0.8906;32.3788;
3100139031999272;36.4902;-0.8662;32.3056;
3100139041999272;36.5268;-0.8662;32.2080;
3100139051999272;36.6610;-0.8662;32.0982;
3100139061999272;36.7342;-0.9028;32.0250;
3100139071999272;36.7830;-0.8662;31.9274;
3100139081999272;36.7586;-0.8906;31.8420;
3100139091999272;36.5878;-0.9272;31.9152;
3100139101999272;36.6244;-0.9150;31.9518;
3100139111999272;36.6244;-0.9150;31.9274;
3100139121999272;36.5512;-0.9272;31.9152;
3100139131999272;36.4902;-0.9272;31.9152;
3100139141999272;36.4170;-0.9516;31.8542;
3100139151999272;36.3072;-0.9638;31.9518;
3100139161999272;36.0998;-1.0004;32.1226;
3100139171999272;35.9900;-1.0614;32.1836;
3100139181999272;35.8680;-1.1224;32.1958;
3100139191999272;35.5996;-1.1346;32.4642;
3100139201999272;35.4410;-1.1590;32.6594;
3100139211999272;35.3312;-1.1346;32.7326;
3100139221999272;35.2214;-1.1346;32.9400;
3100139231999272;35.0750;-1.2078;33.0986;
3100139241999272;35.0994;-1.2444;33.2084;
3100139251999272;35.2214;-1.2322;33.1108;
3100139261999272;35.3068;-1.2688;33.0376;
3100139271999272;35.5142;-1.3054;32.7692;
3100139281999272;35.6606;-1.3664;32.5618;
3100139291999272;35.7948;-1.4274;32.3544;
3100139301999272;35.8314;-1.4518;32.2324;
3100139311999272;35.9046;-1.4274;32.1592;
3100139321999272;35.8924;-1.3908;32.1226;
3100139331999272;35.9290;-1.3908;32.0616;
3100139341999272;36.0388;-1.3786;31.9762;
3100139351999272;36.1364;-1.3542;31.8786;
3100139361999272;36.1486;-1.2932;31.9030;
3100139371999272;36.0754;-1.2444;32.1104;
3100139381999272;36.1486;-1.2078;32.0372;
3100139391999272;36.1974;-1.1712;31.9762;
3100139401999272;36.3438;-1.0980;31.8054;
3100139411999272;36.3194;-1.0492;31.8420;
3100139421999272;36.2218;-1.0126;32.0006;
3100139431999272;36.1120;-0.9516;32.1470;
3100139441999272;36.0754;-0.8784;32.1226;
3100139451999272;36.1608;-0.8296;32.0006;
3100139461999272;36.1608;-0.7808;32.0860;
3100139471999272;36.2584;-0.7076;31.9274;
3100139481999272;36.2706;-0.6466;31.9274;
3100139491999272;36.2706;-0.5734;31.9274;
3100139501999272;36.2950;-0.5612;31.8298;
3100139511999272;36.4902;-0.6100;31.7322;
3100139521999272;36.6610;-0.6588;31.5736;
3100139531999272;36.6610;-0.7198;31.5614;
3100139541999272;36.6976;-0.7564;31.4882;
3100139551999272;36.6976;-0.8174;31.6346;
3100139561999272;36.7586;-0.8906;31.6346;
3100139571999272;36.7464;-0.9638;31.6102;
3100139581999272;36.6488;-1.0126;31.7444;
3100139591999272;36.4292;-1.1224;31.8298;
3100139601999272;36.1486;-1.2688;32.1958;
3100139611999272;36.0510;-1.3542;32.3178;
3100139621999272;35.9534;-1.4518;32.4154;
3100139631999272;35.8558;-1.5616;32.3544;
3100139641999272;35.7460;-1.6470;32.4276;
3100139651999272;35.7826;-1.7446;32.4276;
3100139661999272;35.8680;-1.8178;32.4276;
3100139671999272;35.9656;-1.7934;32.3544;
3100139681999272;36.1974;-1.7568;32.1104;
3100139691999272;36.2706;-1.7202;32.0250;
3100139701999272;36.2950;-1.7080;31.9884;
3100139711999272;36.3804;-1.6470;31.9762;
3100139721999272;36.5390;-1.6226;31.7688;
3100139731999272;36.6122;-1.5860;31.6468;
3100139741999272;36.6854;-1.5250;31.4638;
3100139751999272;36.7708;-1.4030;31.3784;
3100139761999272;36.8074;-1.2200;31.4394;
3100139771999272;36.7830;-1.0980;31.4028;
3100139781999272;36.8562;-0.9028;31.4028;
3100139791999272;36.9172;-0.6588;31.2930;
3100139801999272;36.8562;-0.3904;31.3906;
3100139811999272;36.9172;-0.0488;31.4028;
3100139821999272;36.9904;0.3416;31.3418;
3100139831999272;37.0148;0.6710;31.3174;
3100139841999272;36.9782;0.9882;31.2076;
3100139851999272;37.0148;1.3298;31.2198;
3100139861999272;37.0758;1.6958;31.1466;
3100139871999272;36.9904;2.0374;31.3174;
3100139881999272;36.9416;2.3424;31.4638;
3100139891999272;36.7342;2.6108;31.7200;
3100139901999272;36.4902;2.8548;32.0372;
3100139911999272;36.4048;3.1354;32.1104;
3100139921999272;36.3560;3.4038;32.1348;
3100139931999272;36.3926;3.6844;32.1714;
3100139941999272;36.3560;3.9162;32.1592;
3100139951999272;36.4170;4.1480;32.0494;
3100139961999272;36.4292;4.4408;31.9762;
3100139971999272;36.5146;4.7214;31.8054;
3100139981999272;36.6244;5.0020;31.5858;
3100139991999272;36.6122;5.1972;31.5736;
3100140001999272;36.6366;5.4046;31.5004;
3100140011999272;36.7098;5.6486;31.3052;
3100140021999272;36.7220;5.8926;31.2076;
3100140031999272;36.6366;6.0878;31.3174;
3100140041999272;36.5024;6.2464;31.3540;
3100140051999272;36.4292;6.4172;31.2686;
3100140061999272;36.4292;6.5880;31.3296;
3100140071999272;36.4292;6.7710;31.2564;
3100140081999272;36.3438;6.9540;31.3662;
3100140091999272;36.1364;7.0150;31.5004;
3100140101999272;36.0022;7.0882;31.6346;
3100140111999272;36.0510;7.1980;31.5370;
3100140121999272;36.1120;7.2590;31.5004;
3100140131999272;36.1364;7.2834;31.6346;
3100140141999272;36.0876;7.2590;31.7200;
3100140151999272;35.9290;7.2224;31.9396;
3100140161999272;35.8802;7.1004;32.0738;
3100140171999272;35.8314;7.0150;32.2202;
3100140181999272;35.8070;6.8930;32.2934;
3100140191999272;35.7582;6.6978;32.3910;
3100140201999272;35.7704;6.5392;32.4398;
3100140211999272;35.7460;6.3440;32.5496;
3100140221999272;35.6606;6.1366;32.6716;
3100140231999272;35.7094;5.8438;32.7326;
3100140241999272;35.7094;5.5632;32.7936;
3100140251999272;35.6728;5.1972;32.8424;
3100140261999272;35.6118;4.8190;33.0254;
3100140271999272;35.4532;4.4286;33.2328;
3100140281999272;35.2946;3.9772;33.4524;
3100140291999272;35.1238;3.4526;33.6232;
3100140301999272;34.9896;2.9890;33.8062;
3100140311999272;34.6724;2.4766;34.0868;
3100140321999272;34.4040;2.0008;34.3308;
3100140331999272;34.1966;1.5250;34.5138;
3100140341999272;34.0624;1.0370;34.6114;
3100140351999272;33.8062;0.5246;34.7944;
3100140361999272;33.4402;0.0488;35.0872;
3100140371999272;33.0986;-0.3782;35.2702;
3100140381999272;32.8790;-0.8418;35.3678;
3100140391999272;32.6716;-1.2322;35.5020;
3100140401999272;32.4032;-1.6836;35.6972;
3100140411999272;32.1104;-2.0130;35.9412;
3100140421999272;31.7444;-2.3180;36.0388;
3100140431999272;31.5858;-2.5986;36.0144;
3100140441999272;31.4882;-2.8426;35.9534;
3100140451999272;31.4638;-3.0500;35.8314;
3100140461999272;31.4028;-3.2452;35.6972;
3100140471999272;31.1954;-3.4038;35.7582;
3100140481999272;31.0246;-3.5258;35.6728;
3100140491999272;30.9758;-3.6722;35.5142;
3100140501999272;30.8904;-3.8186;35.5508;
3100140511999272;30.6098;-3.9894;35.8070;
3100140521999272;30.2804;-4.1724;36.0144;
3100140531999272;29.9388;-4.3798;36.2950;
3100140541999272;29.5850;-4.6116;36.5146;
3100140551999272;29.4630;-4.8434;36.4536;
3100140561999272;29.4752;-5.0630;36.3682;
3100140571999272;29.3410;-5.2826;36.3194;
3100140581999272;29.2678;-5.5632;36.1486;
3100140591999272;29.4142;-5.8072;35.7826;
3100140601999272;29.7070;-6.1122;35.2580;
3100140611999272;29.9754;-6.3684;34.6114;
3100140621999272;30.2194;-6.6368;34.0502;
3100140631999272;30.5000;-6.8930;33.4890;
3100140641999272;30.6708;-7.1736;32.9644;
3100140651999272;30.9636;-7.4054;32.5008;
3100140661999272;31.2564;-7.6494;32.0372;
3100140671999272;31.3906;-7.8446;31.7444;
3100140681999272;31.4638;-8.0276;31.5492;
3100140691999272;31.3540;-8.2106;31.7078;
3100140701999272;31.2930;-8.3814;31.7932;
3100140711999272;31.2442;-8.5766;31.9274;
3100140721999272;31.2320;-8.7474;31.8786;
3100140731999272;31.1832;-8.9670;31.9274;
3100140741999272;30.9514;-9.1866;32.1470;
3100140751999272;30.8416;-9.4184;32.1714;
3100140761999272;30.8538;-9.6014;32.0738;
3100140771999272;30.9758;-9.8332;31.7688;
3100140781999272;31.1588;-10.0040;31.5736;
3100140791999272;31.3418;-10.1870;31.2686;
3100140801999272;31.5004;-10.3334;31.1710;
3100140811999272;31.6468;-10.4188;30.9880;
3100140821999272;31.8908;-10.5042;30.7928;
3100140831999272;32.2324;-10.5286;30.5732;
3100140841999272;32.4520;-10.5896;30.4268;
3100140851999272;32.8302;-10.5896;30.2560;
3100140861999272;33.0132;-10.6140;30.1340;
3100140871999272;33.1596;-10.5042;30.0974;
3100140881999272;33.2450;-10.4920;30.2194;
3100140891999272;33.4524;-10.4188;30.2316;
3100140901999272;33.5744;-10.3700;30.2072;
3100140911999272;33.5866;-10.3090;30.2926;
3100140921999272;33.6110;-10.2480;30.4634;
3100140931999272;33.5256;-10.1748;30.6952;
3100140941999272;33.5622;-10.0894;30.8660;
3100140951999272;33.6598;-10.0650;30.9148;
3100140961999272;33.8672;-9.9552;30.8416;
3100140971999272;33.8672;-9.9186;30.9270;
3100140981999272;34.0136;-9.8332;31.0124;
3100140991999272;34.0746;-9.7356;31.0124;
3100141001999272;34.1478;-9.6502;31.0002;
3100141011999272;34.2576;-9.5160;31.0856;
3100141021999272;34.3430;-9.4550;31.0856;
3100141031999272;34.4162;-9.3452;31.1832;
3100141041999272;34.5016;-9.2842;31.2686;
3100141051999272;34.6602;-9.2110;31.2076;
3100141061999272;34.7822;-9.0646;31.1832;
3100141071999272;34.9652;-8.9670;31.1710;
3100141081999272;35.0384;-8.8572;31.2564;
3100141091997999;35.0750;-8.8084;31.3174;
3100141101997999;35.0994;-8.6864;31.4516;
3100141111997999;35.0872;-8.5888;31.6102;
3100141121997999;35.0140;-8.5156;31.6712;
3100141131997999;34.9896;-8.4546;31.8176;
3100141141997999;34.9042;-8.4790;31.9396;
3100141151997999;34.9164;-8.5278;32.0250;
3100141161997999;34.9408;-8.5766;32.1470;
3100141171997999;34.9530;-8.6010;32.1348;
3100141181997999;34.9164;-8.6864;32.1714;
3100141191997999;34.8676;-8.7840;32.2812;
3100141201997999;34.8798;-8.8328;32.3422;
3100141211997999;34.8676;-8.9304;32.3422;
3100141221997999;34.9530;-9.0280;32.2934;
3100141231997999;34.8798;-9.1988;32.3422;
3100141241997999;34.8310;-9.3452;32.2202;
3100141251997999;34.7822;-9.5648;32.2568;
3100141261997999;34.7944;-9.7722;32.1592;
3100141271997999;34.7456;-10.0162;31.9274;
3100141281997999;34.5992;-10.3212;31.8664;
3100141291997999;34.4650;-10.5652;31.7688;
3100141301997999;34.2576;-10.7970;31.7810;
3100141311997999;34.0990;-10.9556;31.5614;
3100141321997999;34.0258;-11.1142;31.2808;
3100141331997999;33.9526;-11.1996;30.9026;
3100141341997999;33.8306;-11.2118;30.5610;
3100141351997999;33.8672;-11.1752;30.1218;
3100141361997999;33.8428;-11.0044;29.7192;
3100141371997999;33.7330;-10.7970;29.4630;
3100141381997999;33.8184;-10.4676;28.8896;
3100141391997999;33.9648;-10.0528;28.3894;
3100141401997999;34.0502;-9.6258;27.9624;
3100141411997999;34.0990;-9.0768;27.7062;
3100141421997999;34.1356;-8.5156;27.4500;
3100141431997999;34.0868;-7.8446;27.3280;
3100141441997999;34.0502;-7.2468;27.2182;
3100141451997999;33.9892;-6.6368;27.2060;
3100141461997999;33.7818;-6.0634;27.2914;
3100141471997999;33.4646;-5.5632;27.5476;
3100141481997999;33.1962;-5.0996;27.8892;
3100141491997999;32.7936;-4.7702;28.1820;
3100141501997999;32.4886;-4.5140;28.4138;
3100141511997999;32.2324;-4.3554;28.6456;
3100141521997999;31.8908;-4.2700;28.8652;
3100141531997999;31.5980;-4.2578;28.9994;
3100141541997999;31.2564;-4.2578;29.2068;
3100141551997999;30.9270;-4.2822;29.3166;
3100141561997999;30.6708;-4.3066;29.2434;
3100141571997999;30.5488;-4.3066;29.0848;
3100141581997999;30.4878;-4.2700;28.8774;
3100141591997999;30.2804;-4.2456;28.6700;
3100141601997999;29.9876;-4.1602;28.6578;
3100141611997999;29.7436;-3.9650;28.5480;
3100141621997999;29.5484;-3.8064;28.3772;
3100141631997999;29.4874;-3.5868;28.1454;
3100141641997999;29.2800;-3.2940;28.0966;
3100141651997999;29.1214;-2.9890;27.9990;
3100141661997999;28.8408;-2.6230;28.2186;
3100141671997999;28.6090;-2.2448;28.4626;
3100141681997999;28.7188;-1.9032;28.4626;
3100141691997999;28.8286;-1.6348;28.4748;
3100141701997999;28.9506;-1.3908;28.5358;
3100141711997999;28.9384;-1.2566;28.8408;
3100141721997999;28.9018;-1.1834;29.1214;
3100141731997999;28.9018;-1.1346;29.5118;
3100141741997999;28.9018;-1.3298;29.7070;
3100141751997999;28.8774;-1.5616;30.0486;
3100141761997999;28.8408;-1.7690;30.2438;
3100141771997999;28.8530;-2.0740;30.3902;
3100141781997999;28.8652;-2.3668;30.5488;
3100141791997999;28.9628;-2.5620;30.5610;
3100141801997999;29.1946;-2.7816;30.4634;
3100141811997999;29.3898;-2.9402;30.2560;
3100141821997999;29.7436;-2.9768;29.9998;
3100141831997999;30.1584;-2.9890;29.6826;
3100141841997999;30.4390;-2.9524;29.5606;
3100141851997999;30.6952;-2.8304;29.4142;
3100141861997999;30.9758;-2.6596;29.2800;
3100141871997999;31.2076;-2.5010;29.2312;
3100141881997999;31.5004;-2.3546;29.2922;
3100141891997999;31.7444;-2.1716;29.4508;
3100141901997999;31.9396;-1.9642;29.5972;
3100141911997999;32.2690;-1.7446;29.6216;
3100141921997999;32.5496;-1.5372;29.7070;
3100141931997999;32.8546;-1.3054;29.8412;
3100141941997999;33.3182;-1.0736;29.8656;
3100141951997999;33.7696;-0.8784;29.8534;
3100141961997999;34.0502;-0.7198;29.9022;
3100141971997999;34.4162;-0.6588;29.9388;
3100141981997999;34.7456;-0.5734;30.0852;
3100141991997999;35.0018;-0.4636;30.2072;
3100142001997999;35.3556;-0.4758;30.1950;
3100142011997999;35.5996;-0.5124;30.2682;
3100142021997999;35.6606;-0.6832;30.5976;
3100142031997999;35.6972;-0.8296;30.9148;
3100142041997999;35.8436;-0.9638;31.1954;
3100142051997999;35.9046;-1.0370;31.4150;
3100142061997999;36.0022;-1.2688;31.5858;
3100142071997999;36.0876;-1.5128;31.8664;
3100142081997999;36.0754;-1.6714;32.2080;
3100142091997999;36.0998;-1.8788;32.5252;
3100142101997999;36.1242;-2.0130;32.6960;
3100142111997999;36.3316;-2.2204;32.7448;
3100142121997999;36.3926;-2.4644;32.7936;
3100142131997999;36.5146;-2.7328;32.8058;
3100142141997999;36.5756;-2.9402;32.7936;
3100142151997999;36.5878;-3.1354;32.7082;
3100142161997999;36.6244;-3.4160;32.7204;
3100142171997999;36.5756;-3.7210;32.8058;
3100142181997999;36.5390;-4.0382;32.8790;
3100142191997999;36.3804;-4.2700;33.0620;
3100142201997999;36.2706;-4.5018;33.2938;
3100142211997999;36.1608;-4.7336;33.4158;
3100142221997999;36.0632;-4.9776;33.5988;
3100142231997999;36.0388;-5.1972;33.8306;
3100142241997999;35.8558;-5.4168;34.0380;
3100142251997999;35.9290;-5.5388;34.0014;
3100142261997999;36.0266;-5.6608;33.9648;
3100142271997999;36.0876;-5.8072;33.9404;
3100142281997999;36.0998;-5.9658;33.8550;
3100142291997999;36.0876;-6.0512;33.8794;
3100142301997999;36.0998;-6.1244;33.7208;
3100142311997999;36.1364;-6.2098;33.5866;
3100142321997999;36.3072;-6.2342;33.3792;
3100142331997999;36.3194;-6.2830;33.3670;
3100142341997999;36.3072;-6.3074;33.3792;
3100142351997999;36.3072;-6.3196;33.3548;
3100142361997999;36.4658;-6.2830;33.1840;
3100142371997999;36.6122;-6.2830;32.9888;
3100142381997999;36.7952;-6.1976;32.9400;
3100142391997999;36.8684;-6.1244;32.8180;
3100142401997999;37.0270;-6.0878;32.7692;
3100142411997999;37.2100;-5.9902;32.6350;
3100142421997999;37.3564;-5.9414;32.3788;
3100142431997999;37.4906;-5.8438;32.1958;
3100142441997999;37.5760;-5.7584;32.2080;
3100142451997999;37.5638;-5.6364;32.2446;
3100142461997999;37.4296;-5.5266;32.4642;
3100142471997999;37.3686;-5.4168;32.5984;
3100142481997999;37.1612;-5.3436;32.8302;
3100142491997999;37.0636;-5.2216;32.9522;
3100142501997999;37.0148;-5.0996;33.1230;
3100142511997999;36.9416;-4.9654;33.2816;
3100142521997999;36.7952;-4.8678;33.4036;
3100142531997999;36.8806;-4.6970;33.3670;
3100142541997999;37.0636;-4.6116;33.1840;
3100142551997999;37.1124;-4.5018;33.1474;
3100142561997999;37.2832;-4.3554;32.9766;
3100142571997999;37.3442;-4.2578;32.8790;
3100142581997999;37.3076;-4.0748;32.9034;
3100142591997999;37.4296;-3.9162;32.8058;
3100142601997999;37.6736;-3.7210;32.4886;
3100142611997999;37.7224;-3.6234;32.3178;
3100142621997999;37.7224;-3.4648;32.2690;
3100142631997999;37.7956;-3.3062;32.0982;
3100142641997999;37.8078;-3.1354;32.0128;
3100142651997999;37.7590;-3.0012;32.0738;
3100142661997999;37.8566;-2.9158;31.9152;
3100142671997999;37.9176;-2.8304;31.9030;
3100142681997999;37.8200;-2.7694;32.1348;
3100142691997999;37.7712;-2.6718;32.3178;
3100142701997999;37.6980;-2.6352;32.5130;
3100142711997999;37.6004;-2.5742;32.7814;
3100142721997999;37.5272;-2.5742;32.9034;
3100142731997999;37.6004;-2.5376;32.8668;
3100142741997999;37.5516;-2.5498;33.0010;
3100142751997999;37.4662;-2.5376;33.0864;
3100142761997999;37.3686;-2.5620;33.0742;
3100142771997999;37.3198;-2.5986;33.0986;
3100142781997999;37.4052;-2.6108;32.9766;
3100142791997999;37.5150;-2.6962;32.8180;
3100142801997999;37.6126;-2.7084;32.6716;
3100142811997999;37.5516;-2.7572;32.6594;
3100142821997999;37.3930;-2.8182;32.8424;
3100142831997999;37.2832;-2.9280;33.0620;
3100142841997999;37.1612;-3.0134;33.3060;
3100142851997999;37.0148;-3.0866;33.5988;
3100142861997999;36.8440;-3.1720;33.7818;
3100142871997999;36.6000;-3.2452;34.0624;
3100142881997999;36.4170;-3.3428;34.3552;
3100142891997999;36.2096;-3.4160;34.6358;
3100142901997999;36.2096;-3.4648;34.7212;
3100142911997999;36.2096;-3.5624;34.6602;
3100142921997999;36.1730;-3.6478;34.6724;
3100142931997999;36.1730;-3.7820;34.5382;
3100142941997999;36.0144;-3.9040;34.6724;
3100142951997999;35.9778;-4.0382;34.7578;
3100142961997999;35.9412;-4.1968;34.6846;
3100142971997999;35.9656;-4.2944;34.6724;
3100142981997999;35.9656;-4.4042;34.5748;
3100142991997999;35.8802;-4.4652;34.5260;
3100143001997999;36.0022;-4.4896;34.3796;
3100143011997999;36.0632;-4.5018;34.3796;
3100143021997999;36.0510;-4.5384;34.3552;
3100143031997999;36.0754;-4.5628;34.3308;
3100143041997999;36.0998;-4.5262;34.3064;
3100143051997999;36.1364;-4.5262;34.2332;
3100143061997999;36.1364;-4.5262;34.2210;
3100143071997999;36.0632;-4.5262;34.3064;
3100143081997999;35.9046;-4.5262;34.5138;
3100143091997999;35.7460;-4.5628;34.5748;
3100143101997999;35.8070;-4.5384;34.5016;
3100143111997999;35.7704;-4.4774;34.4040;
3100143121997999;35.6972;-4.4652;34.4650;
3100143131997999;35.6728;-4.4530;34.4406;
3100143141997999;35.7338;-4.3676;34.3552;
3100143151997999;35.8802;-4.3432;34.2088;
3100143161997999;36.0144;-4.2700;33.9892;
3100143171997999;36.1730;-4.2090;33.8062;
3100143181997999;36.2584;-4.1480;33.6232;
3100143191997999;36.4170;-4.0748;33.4036;
3100143201997999;36.4902;-4.0138;33.1962;
3100143211997999;36.5634;-3.9894;33.0620;
3100143221997999;36.3560;-4.0260;33.1962;
3100143231997999;36.1486;-3.9894;33.2206;
3100143241997999;36.0022;-3.9528;33.3548;
3100143251997999;35.8680;-3.9406;33.3670;
3100143261997999;35.8192;-3.9528;33.4768;
3100143271997999;35.6850;-3.9650;33.5378;
3100143281997999;35.6240;-3.9162;33.5378;
3100143291997999;35.6118;-3.8674;33.5378;
3100143301997999;35.7460;-3.8186;33.2694;
3100143311997999;35.8802;-3.7820;33.2450;
3100143321997999;35.8192;-3.7698;33.1840;
3100143331997999;35.6606;-3.7088;33.2694;
3100143341997999;35.5508;-3.6722;33.2328;
3100143351997999;35.4288;-3.6478;33.2816;
3100143361997999;35.2702;-3.6356;33.3060;
3100143371997999;34.9530;-3.6112;33.4158;
3100143381997999;34.6114;-3.5746;33.6598;
3100143391997999;34.4284;-3.5380;33.6598;
3100143401997999;34.3064;-3.5380;33.5622;
3100143411997999;34.2576;-3.5380;33.4646;
3100143421997999;34.0746;-3.5380;33.5378;
3100143431997999;34.0014;-3.5868;33.3548;
3100143441997999;34.0502;-3.5990;33.1840;
3100143451997999;34.0868;-3.5868;33.0254;
3100143461997999;34.2454;-3.6600;32.6960;
3100143471997999;34.2088;-3.6722;32.4642;
3100143481997999;34.2332;-3.6600;32.2690;
3100143491997999;34.2576;-3.5868;32.0738;
3100143501997999;34.2942;-3.5624;31.8420;
3100143511997999;34.2210;-3.4892;31.8176;
3100143521997999;34.0014;-3.4770;31.9762;
3100143531997999;33.8672;-3.4404;31.9640;
3100143541997999;33.6964;-3.3672;32.0616;
3100143551997999;33.5744;-3.3550;32.1470;
3100143561997999;33.4280;-3.3306;32.2934;
3100143571997999;33.3060;-3.3672;32.4276;
3100143581997999;33.2694;-3.3550;32.4276;
3100143591997999;33.2450;-3.3916;32.4398;
3100143601997999;33.2206;-3.3794;32.3422;
3100143611997999;33.1596;-3.4892;32.2690;
3100143621997999;33.0742;-3.5502;32.2080;
3100143631997999;32.9766;-3.6112;32.2324;
3100143641997999;32.9156;-3.7210;32.2080;
3100143651997999;32.8790;-3.8186;32.1226;
3100143661997999;32.6594;-3.9162;32.3056;
3100143671997999;32.5130;-4.0138;32.4398;
3100143681997999;32.4276;-4.1480;32.5618;
3100143691997999;32.3788;-4.2212;32.6838;
3100143701997999;32.4764;-4.2822;32.6838;
3100143711997999;32.5984;-4.3798;32.6106;
3100143721997999;32.6594;-4.4530;32.5374;
3100143731997999;32.7448;-4.5384;32.5252;
3100143741997999;32.9034;-4.6482;32.3300;
3100143751997999;32.9888;-4.6848;32.1958;
3100143761997999;33.0498;-4.7702;32.1348;
3100143771997999;33.0864;-4.8312;32.1226;
3100143781997999;33.0986;-4.9166;32.0616;
3100143791997999;33.1230;-4.9044;32.0006;
3100143801997999;33.2084;-4.9288;32.0006;
3100143811997999;33.2328;-4.8922;32.0494;
3100143821997999;33.2938;-4.8556;32.0982;
3100143831997999;33.4280;-4.8190;32.0860;
3100143841997999;33.5378;-4.7092;32.0372;
3100143851997999;33.7818;-4.6238;31.9640;
3100143861997999;33.9770;-4.5018;32.0494;
3100143871997999;34.1478;-4.4164;32.1104;
3100143881997999;34.2820;-4.2700;32.2934;
3100143891997999;34.3918;-4.2212;32.3666;
3100143901997999;34.5260;-4.1358;32.4886;
3100143911997999;34.6724;-4.1236;32.5984;
3100143921997999;34.7944;-4.2090;32.7204;
3100143931997999;34.9042;-4.2944;32.8058;
3100143941997999;34.9652;-4.3920;32.9278;
3100143951997999;35.0018;-4.5262;33.0620;
3100143961997999;35.1238;-4.6848;33.0376;
3100143971997999;35.2092;-4.8190;33.0254;
3100143981997999;35.3434;-5.0142;32.9888;
3100143991997999;35.5142;-5.1362;32.8790;
3100144001997999;35.6972;-5.2216;32.7570;
3100144011997999;35.8314;-5.3314;32.7326;
3100144021997999;35.9046;-5.4778;32.6228;
3100144031997999;36.0022;-5.5510;32.4886;
3100144041997999;36.1120;-5.6364;32.3300;
3100144051997999;36.2218;-5.7340;32.2934;
3100144061997999;36.3804;-5.7462;32.1714;
3100144071997999;36.3682;-5.8316;32.1836;
3100144081997999;36.3438;-5.9292;32.1836;
3100144091997999;36.3682;-6.0024;32.0494;
3100144101997999;36.4536;-6.0756;31.9518;
3100144111997999;36.4780;-6.1976;31.9762;
3100144121997999;36.5024;-6.2952;31.8298;
3100144131997999;36.5756;-6.3806;31.5980;
3100144141997999;36.3682;-6.5026;31.7322;
3100144151997999;36.1852;-6.5636;31.8542;
3100144161997999;36.0266;-6.5880;31.9030;
3100144171997999;35.8314;-6.5636;32.0128;
3100144181997999;35.7094;-6.5270;31.9396;
3100144191997999;35.5996;-6.5026;31.9762;
3100144201997999;35.4166;-6.4782;32.1958;
3100144211997999;35.2824;-6.3806;32.2690;
3100144221997999;35.2336;-6.2952;32.2202;
3100144231997999;35.1848;-6.1732;32.1592;
3100144241997999;35.1726;-6.1244;32.1836;
3100144251997999;35.1604;-6.1000;32.1226;
3100144261997999;35.1848;-6.0878;32.1226;
3100144271997999;35.2946;-6.0512;31.7566;
3100144281997999;35.4532;-5.9780;31.4882;
3100144291997999;35.6240;-5.9536;31.1710;
3100144301997999;35.9656;-5.9658;30.6220;
3100144311997999;36.2950;-5.9658;30.1584;
3100144321997999;36.5878;-5.9292;29.5850;
3100144331997999;36.7708;-5.8804;29.2678;
3100144341997999;36.8806;-5.7950;29.0482;
3100144351997999;36.9172;-5.7096;29.0726;
3100144361997999;36.9782;-5.5998;28.9628;
3100144371997999;36.9660;-5.4656;28.9384;
3100144381997999;36.9660;-5.2826;28.9628;
3100144391997999;36.9538;-5.1118;28.9262;
3100144401997999;36.9782;-4.8800;29.0238;
3100144411997999;37.0880;-4.6238;28.8896;
3100144421997999;37.0880;-4.3310;28.8896;
3100144431997999;37.0880;-4.0260;28.8774;
3100144441997999;37.0026;-3.7576;29.0116;
3100144451997999;36.9416;-3.4648;29.2678;
3100144461997999;36.7708;-3.0744;29.5118;
3100144471997999;36.6854;-2.7206;29.7802;
3100144481997999;36.7098;-2.3424;29.8168;
3100144491997999;36.6610;-1.9886;30.0120;
3100144501997999;36.8196;-1.6104;29.9388;
3100144511997999;36.9416;-1.2444;29.9388;
3100144521997999;37.1734;-0.9394;29.8046;
3100144531997999;37.3198;-0.6344;29.7558;
3100144541997999;37.4906;-0.4636;29.6948;
3100144551997999;37.4662;-0.2562;29.9022;
3100144561997999;37.4540;-0.1098;30.1462;
3100144571997999;37.4296;0.0366;30.3414;
3100144581997999;37.2588;0.1464;30.7318;
3100144591997999;37.1246;0.2196;31.0734;
3100144601997999;36.9416;0.2928;31.4516;
3100144611997999;36.7952;0.2684;31.6346;
3100144621997999;36.6366;0.3050;31.9152;
3100144631997999;36.7220;0.2928;31.7932;
3100144641997999;36.7342;0.2928;31.9762;
3100144651997999;36.9416;0.2806;31.9274;
3100144661997999;37.0148;0.2318;31.9152;
3100144671997999;37.1246;0.1342;31.9762;
3100144681997999;37.2222;-0.0000;31.9396;
3100144691997999;37.3076;-0.1830;32.1470;
3100144701997999;37.2710;-0.4148;32.2934;
3100144711997999;37.3076;-0.6710;32.4642;
3100144721997999;37.1490;-0.9760;32.5862;
3100144731997999;36.8928;-1.2810;32.9156;
3100144741997999;36.7830;-1.6470;33.0376;
3100144751997999;36.6732;-2.0374;33.0620;
3100144761997999;36.5390;-2.3668;33.0864;
3100144771997999;36.4414;-2.6108;32.9888;
3100144781997999;36.4902;-2.8304;32.9156;
3100144791997999;36.4170;-3.0500;32.7936;
3100144801997999;36.6244;-3.3184;32.4154;
3100144811997999;36.7586;-3.5868;32.0738;
3100144821997999;36.7952;-3.7576;31.7810;
3100144831997999;36.8806;-3.9040;31.4760;
3100144841997999;36.9050;-4.0504;31.3296;
3100144851997999;36.9050;-4.2578;31.1588;
3100144861997999;36.9904;-4.3798;30.8538;
3100144871997999;37.0392;-4.4652;30.6952;
3100144881997999;36.9782;-4.5140;30.5854;
3100144891997999;36.9782;-4.5506;30.4390;
3100144901997999;36.9782;-4.6116;30.3292;
3100144911997999;37.0026;-4.6238;30.2194;
3100144921997999;37.0880;-4.6238;29.9754;
3100144931997999;37.2222;-4.5750;29.6582;
3100144941997999;37.2100;-4.5506;29.5850;
3100144951997999;37.1978;-4.5506;29.4630;
3100144961997999;37.2100;-4.5384;29.3654;
3100144971997999;37.1612;-4.5262;29.2068;
3100144981997999;37.1978;-4.5018;29.1092;
3100144991997999;37.0880;-4.4652;29.0238;
3100145001997999;36.9782;-4.4164;28.9628;
3100145011997999;36.8562;-4.3676;28.8774;
3100145021997999;36.7220;-4.3432;28.7920;
3100145031997999;36.5634;-4.2212;28.6578;
3100145041997999;36.4048;-4.1724;28.5846;
3100145051997999;36.2584;-4.0870;28.5724;
3100145061997999;36.0388;-3.9528;28.4992;
3100145071997999;35.8192;-3.8064;28.4382;
3100145081997999;35.6362;-3.6722;28.4138;
3100145091997999;35.4044;-3.4892;28.4748;
3100145101997999;35.1848;-3.3550;28.4260;
3100145111997999;34.9042;-3.2818;28.5480;
3100145121997999;34.7700;-3.0988;28.4382;
3100145131997999;34.6114;-2.9402;28.3162;
3100145141997999;34.4162;-2.7938;28.3040;
3100145151997999;34.3308;-2.6962;28.2796;
3100145161997999;34.2820;-2.5620;28.2064;
3100145171997999;34.2332;-2.4278;28.0600;
3100145181997999;34.3064;-2.2326;27.8770;
3100145191997999;34.4528;-2.0008;27.5964;
3100145201997999;34.3674;-1.7934;27.5720;
3100145211997999;34.3186;-1.5738;27.6818;
3100145221997999;34.4284;-1.3664;27.7306;
3100145231997999;34.4894;-1.0858;27.8038;
3100145241997999;34.4894;-0.8540;27.9624;
3100145251997999;34.6114;-0.6466;28.1088;
3100145261997999;34.7700;-0.4148;28.3162;
3100145271997999;34.8920;-0.2074;28.5236;
3100145281997999;35.1848;-0.0366;28.7188;
3100145291997999;35.5264;0.1586;28.7554;
3100145301997999;35.8436;0.3416;28.7554;
3100145311997999;36.0998;0.4758;28.8530;
3100145321997999;36.2950;0.6588;29.0970;
3100145331997999;36.3194;0.7686;29.4752;
3100145341997999;36.3804;0.8906;29.7436;
3100145351997999;36.3316;0.9882;30.1462;
3100145361997999;36.2828;1.0858;30.5488;
3100145371997999;36.1120;1.1102;31.0124;
3100145381997999;35.9778;1.1102;31.4760;
3100145391997999;35.9290;1.0736;31.8054;
3100145401997999;35.9168;0.9882;32.0494;
3100145411997999;36.0022;0.9516;32.2812;
3100145421997999;35.8436;0.8296;32.6960;
3100145431997999;35.8192;0.7198;33.0742;
3100145441997999;35.7704;0.5124;33.2938;
3100145451997999;35.7948;0.3172;33.5134;
3100145461997999;35.7338;0.1098;33.7452;
3100145471997999;35.6850;-0.0976;33.9282;
3100145481997999;35.6240;-0.3050;34.1600;
3100145491997999;35.5996;-0.5246;34.2942;
3100145501997999;35.7094;-0.7076;34.1722;
3100145511997999;35.7826;-0.9394;34.0868;
3100145521997999;35.7948;-1.1224;34.0380;
3100145531997999;35.8436;-1.2810;34.0380;
3100145541997999;35.9046;-1.4640;34.0502;
3100145551997999;35.9412;-1.6226;34.0136;
3100145561997999;36.0754;-1.8422;33.8916;
3100145571997999;36.0632;-2.0618;33.7330;
3100145581997999;36.0388;-2.3546;33.7574;
3100145591997999;35.9290;-2.6718;33.7452;
3100145601997999;35.8070;-3.0012;33.8428;
3100145611997999;35.6240;-3.3794;33.8916;
3100145621997999;35.3556;-3.6966;33.9526;
3100145631997999;35.1482;-4.0382;34.0624;
3100145641997999;35.0140;-4.2700;34.1112;
3100145651997999;34.9408;-4.4896;34.1600;
3100145661997999;34.9408;-4.6238;34.0258;
3100145671997999;35.0506;-4.6848;33.8062;
3100145681997999;35.1238;-4.6848;33.6720;
3100145691997999;35.2946;-4.6970;33.4280;
3100145701997999;35.5752;-4.6726;33.1230;
3100145711997999;35.7582;-4.6970;32.9278;
3100145721997999;35.8558;-4.6604;32.7082;
3100145731997999;35.9656;-4.6970;32.4886;
3100145741997999;35.8924;-4.8068;32.5374;
3100145751997999;35.7948;-4.9044;32.5984;
3100145761997999;35.8314;-5.0752;32.4032;
3100145771997999;35.8436;-5.2338;32.3178;
3100145781997999;35.8924;-5.3680;32.1836;
3100145791997999;35.9046;-5.4778;31.9518;
3100145801997999;35.8802;-5.6364;31.9274;
3100145811997999;35.8070;-5.6974;31.8420;
3100145821997999;35.9290;-5.7340;31.5858;
3100145831997999;36.1120;-5.7462;31.3662;
3100145841997999;36.1974;-5.6486;31.2686;
3100145851997999;36.1486;-5.5144;31.2808;
3100145861997999;36.0632;-5.4046;31.3418;
3100145871997999;36.0754;-5.3192;31.4150;
3100145881997999;36.0876;-5.2094;31.3418;
3100145891997999;36.1242;-5.1118;31.3662;
3100145901997999;36.0998;-4.9898;31.4150;
3100145911997999;36.1242;-4.8190;31.2686;
3100145921997999;36.1486;-4.7092;31.1832;
3100145931997999;36.3072;-4.6116;30.9636;
3100145941997999;36.4292;-4.5140;30.8660;
3100145951997999;36.4536;-4.3432;30.7928;
3100145961997999;36.5390;-4.1480;30.6464;
3100145971997999;36.7586;-4.0016;30.3658;
3100145981997999;36.9416;-3.8186;30.1828;
3100145991997999;37.0148;-3.7454;30.1950;
3100146001997999;37.1612;-3.6112;30.0730;
3100146011997999;37.2222;-3.4770;30.0486;
3100146021997999;37.2832;-3.3428;29.9388;
3100146031997999;37.4296;-3.2330;29.7924;
3100146041997999;37.4540;-3.1476;29.8046;
3100146051997999;37.4296;-3.0012;29.9144;
3100146061997999;37.3442;-2.8548;30.0852;
3100146071997999;37.2466;-2.6596;30.2682;
3100146081997999;37.1978;-2.5620;30.4146;
3100146091997999;37.1490;-2.3790;30.4634;
3100146101997999;37.0636;-2.2204;30.6220;
3100146111997999;37.0026;-2.0618;30.8050;
3100146121997999;37.0392;-1.9520;30.8050;
3100146131997999;36.9416;-1.8666;31.0002;
3100146141997999;36.9050;-1.8056;31.1100;
3100146151997999;36.9050;-1.7812;31.0978;
3100146161997999;36.8196;-1.7446;31.3296;
3100146171997999;36.7464;-1.8178;31.5248;
3100146181997999;36.7952;-1.8544;31.4882;
3100146191997999;36.8196;-1.9276;31.4760;
3100146201997999;36.8318;-1.9520;31.5614;
3100146211997999;36.8684;-2.0008;31.5370;
3100146221997999;37.0026;-2.0130;31.3662;
3100146231997999;37.0880;-2.0618;31.3174;
3100146241997999;37.3076;-2.0740;31.0002;
3100146251997999;37.4052;-2.0618;30.8416;
3100146261997999;37.5272;-2.0252;30.7318;
3100146271997999;37.6004;-2.0374;30.5366;
3100146281997999;37.6736;-2.0618;30.5366;
3100146291997999;37.7468;-2.1472;30.3902;
3100146301997999;37.6614;-2.3180;30.5000;
3100146311997999;37.6004;-2.4278;30.5732;
3100146321997999;37.4052;-2.5742;30.7806;
3100146331997999;37.3808;-2.7450;30.8782;
3100146341997999;37.2466;-2.9158;31.0856;
3100146351997999;37.0880;-3.0134;31.3418;
3100146361997999;36.9538;-3.0744;31.5004;
3100146371997999;36.7830;-3.0622;31.7078;
3100146381997999;36.6488;-3.0866;31.8420;
3100146391997999;36.4658;-3.1354;32.0860;
3100146401997999;36.3072;-3.1476;32.3178;
3100146411997999;36.0876;-3.1232;32.5740;
3100146421997999;35.9290;-3.1476;32.6594;
3100146431997999;35.8192;-3.1842;32.8302;
3100146441997999;35.7338;-3.2086;32.9156;
3100146451997999;35.6728;-3.2940;32.9644;
3100146461997999;35.7338;-3.2696;32.9888;
3100146471997999;35.7826;-3.2208;32.8546;
3100146481997999;35.7582;-3.1354;32.8180;
3100146491997999;35.8314;-3.0866;32.6960;
3100146501997999;35.9412;-2.9890;32.6838;
3100146511997999;36.0632;-2.8792;32.5374;
3100146521997999;36.2584;-2.7938;32.2690;
3100146531997999;36.3072;-2.7206;32.2202;
3100146541997999;36.3072;-2.6108;32.1958;
3100146551997999;36.4414;-2.5620;32.0128;
3100146561997999;36.6122;-2.5254;31.8054;
3100146571997999;36.7952;-2.4522;31.5858;
3100146581997999;36.7708;-2.3790;31.5248;
3100146591997999;36.6366;-2.3180;31.5248;
3100146601997999;36.4902;-2.2692;31.5858;
3100146611997999;36.4902;-2.2082;31.5126;
3100146621997999;36.5756;-2.1960;31.2808;
3100146631997999;36.6000;-2.0862;31.2320;
3100146641997999;36.5756;-2.0008;31.3052;
3100146651997999;36.4780;-1.9764;31.3418;
3100146661997999;36.5268;-1.9032;31.2076;
3100146671997999;36.6122;-1.8422;31.2076;
3100146681997999;36.6000;-1.7690;31.3052;
3100146691997999;36.5878;-1.6592;31.3052;
3100146701997999;36.5512;-1.5738;31.4638;
3100146711997999;36.4414;-1.5860;31.5980;
3100146721997999;36.3926;-1.5982;31.6224;
3100146731997999;36.2950;-1.5738;31.8298;
3100146741997999;36.2218;-1.6470;31.9762;
3100146751997999;36.2584;-1.7080;31.9640;
3100146761997999;36.1852;-1.7812;32.1226;
3100146771997999;36.1852;-1.8788;32.1958;
3100146781997999;36.1364;-1.9642;32.2080;
3100146791997999;36.1852;-2.0130;32.1958;
3100146801997999;36.1486;-2.0740;32.2202;
3100146811997999;36.0632;-2.1838;32.2812;
3100146821997999;35.9778;-2.2448;32.4398;
3100146831997999;35.8924;-2.3668;32.5130;
3100146841997999;35.8680;-2.4888;32.5130;
3100146851997999;35.6118;-2.5742;32.8668;
3100146861997999;35.2946;-2.7084;33.2450;
3100146871997999;34.9286;-2.8304;33.5744;
3100146881997999;34.7456;-2.9402;33.8550;
3100146891997999;34.6236;-3.0378;34.0014;
3100146901997999;34.4040;-3.1842;34.1966;
3100146911997999;34.1478;-3.3672;34.5260;
3100146921997999;33.9526;-3.5136;34.7700;
3100146931997999;33.8306;-3.6966;34.9286;
3100146941997999;33.8428;-3.8552;34.9042;
3100146951997999;33.9160;-3.9894;34.8798;
3100146961997999;33.9160;-4.1480;34.9286;
3100146971997999;34.0624;-4.2090;34.7944;
3100146981997999;34.2576;-4.2578;34.5992;
3100146991997999;34.4406;-4.2578;34.4284;
3100147001997999;34.5992;-4.2578;34.2332;
3100147011997999;34.7456;-4.2334;34.0624;
3100147021997999;34.8066;-4.2212;34.0258;
3100147031997999;34.8310;-4.1724;34.0014;
3100147041997999;34.9042;-4.1602;33.8550;
3100147051997999;34.8188;-4.2334;33.9770;
3100147061997999;34.6480;-4.2944;34.2332;
3100147071997999;34.5382;-4.2944;34.2820;
3100147081997999;34.4894;-4.3798;34.3064;
3100147091997999;34.5382;-4.4774;34.2820;
3100147101997999;34.5870;-4.5506;34.2820;
3100147111997999;34.5992;-4.6238;34.3186;
3100147121997999;34.5748;-4.6604;34.4162;
3100147131997999;34.7456;-4.7092;34.2210;
3100147141997999;35.0018;-4.7458;33.8672;
3100147151997999;35.2092;-4.8068;33.6720;
3100147161997999;35.2580;-4.8312;33.6720;
3100147171997999;35.2336;-4.7702;33.6232;
3100147181997999;35.2458;-4.7702;33.5988;
3100147191997999;35.3312;-4.8312;33.5378;
3100147201997999;35.4288;-4.8678;33.4158;
3100147211997999;35.4166;-4.8556;33.4524;
3100147221997999;35.7582;-4.8556;33.0010;
3100147231997999;35.7948;-4.8922;33.0132;
3100147241997999;35.8802;-4.8800;32.9766;
3100147251997999;35.9534;-4.9288;32.9034;
3100147261997999;36.0876;-4.9898;32.6838;
3100147271997999;36.0876;-4.9776;32.6350;
3100147281997999;36.0754;-5.0264;32.5862;
3100147291997999;35.9412;-5.0752;32.6838;
3100147301997999;35.4776;-5.1118;33.2572;
3100147311997999;35.3678;-5.1240;33.2694;
3100147321997999;35.2092;-5.2216;33.3792;
3100147331997999;35.0628;-5.3070;33.5012;
3100147341997999;34.8066;-5.4290;33.7940;
3100147351997999;34.7090;-5.5144;33.8306;
3100147361997999;34.7456;-5.5876;33.7208;
3100147371997999;34.8310;-5.6730;33.5134;
3100147381997999;34.8798;-5.7340;33.3548;
3100147391997999;35.0750;-5.7950;33.0986;
3100147401997999;35.2702;-5.8072;32.6472;
3100147411997999;35.3800;-5.8682;32.3788;
3100147421997999;35.5142;-5.9048;32.0250;
3100147431997999;35.5630;-5.9902;31.8908;
3100147441997999;35.5020;-6.0390;31.8908;
3100147451997999;35.4044;-6.0756;31.9274;
3100147461997999;35.3922;-6.1244;31.8542;
3100147471997999;35.1970;-6.2220;31.9640;
3100147481997999;35.1238;-6.3074;31.9640;
3100147491997999;35.2580;-6.3196;31.7322;
3100147501997999;35.4532;-6.2830;31.4882;
3100147511997999;35.6606;-6.2342;31.1588;
3100147521997999;35.7826;-6.3196;30.9148;
3100147531997999;35.9778;-6.3684;30.4878;
3100147541997999;36.1486;-6.4050;30.1462;
3100147551997999;36.3194;-6.4294;29.8046;
3100147561997999;36.5268;-6.4050;29.4874;
3100147571997999;36.6610;-6.4294;29.2312;
3100147581997999;36.6122;-6.4782;29.1458;
3100147591997999;36.5756;-6.5392;29.0848;
3100147601997999;36.5512;-6.4782;29.1458;
3100147611997999;36.5878;-6.4660;29.0238;
3100147621997999;36.5268;-6.4782;29.0116;
3100147631997999;36.4780;-6.4416;29.0116;
3100147641997999;36.3804;-6.4416;28.9994;
3100147651997999;36.2584;-6.3928;29.0726;
3100147661997999;36.2950;-6.2952;29.0482;
3100147671997999;36.1364;-6.1610;29.1824;
3100147681997999;36.1364;-6.0512;29.0482;
3100147691997999;36.0998;-5.8804;29.1458;
3100147701997999;36.0998;-5.6120;29.2312;
3100147711997999;36.0754;-5.3680;29.4386;
3100147721997999;36.0876;-5.1362;29.5240;
3100147731997999;36.1852;-4.8800;29.6216;
3100147741997999;36.2218;-4.5750;29.6460;
3100147751997999;36.3804;-4.3432;29.5606;
3100147761997999;36.5146;-4.0870;29.6094;
3100147771997999;36.5390;-3.8430;29.7558;
3100147781997999;36.5878;-3.6478;29.8900;
3100147791997999;36.6244;-3.4648;29.9022;
3100147801997999;36.5390;-3.2696;30.1340;
3100147811997999;36.4658;-3.0988;30.2926;
3100147821997999;36.4048;-3.0256;30.5244;
3100147831997999;36.4658;-2.8548;30.6586;
3100147841997999;36.4780;-2.6230;30.8782;
3100147851997999;36.4048;-2.4644;31.1100;
3100147861997999;36.4902;-2.2936;31.2808;
3100147871997999;36.4414;-2.1228;31.5980;
3100147881997999;36.4658;-1.9520;31.8542;
3100147891997999;36.3804;-1.7690;32.2568;
3100147901997999;36.4292;-1.5860;32.3788;
3100147911997999;36.4170;-1.4274;32.6472;
3100147921997999;36.3438;-1.3664;32.8546;
3100147931997999;36.4536;-1.2566;32.9888;
3100147941997999;36.3926;-1.1712;33.1474;
3100147951997999;36.5268;-1.1468;33.0864;
3100147961997999;36.6610;-1.1590;33.0986;
3100147971997999;36.8684;-1.1834;32.9034;
3100147981997999;37.0026;-1.1834;32.9278;
3100147991997999;37.0270;-1.1956;33.0132;
3100148001997999;37.1490;-1.1956;32.9278;
3100148011997999;37.2588;-1.2078;32.8546;
3100148021997999;37.2954;-1.2810;32.8180;
3100148031997999;37.3076;-1.2688;32.8302;
3100148041997999;37.2588;-1.2566;32.9034;
3100148051997999;37.1856;-1.2078;33.0498;
3100148061997999;36.9660;-1.1956;33.3548;
3100148071997999;36.8318;-1.1956;33.5500;
3100148081997999;36.6854;-1.2200;33.7208;
3100148091997999;36.5390;-1.2688;33.7818;
3100148101997999;36.4658;-1.3176;33.8306;
3100148111997999;36.4170;-1.3664;33.9038;
3100148121997999;36.4414;-1.3908;33.8062;
3100148131997999;36.4170;-1.5372;33.7696;
3100148141997999;36.5634;-1.5860;33.5744;
3100148151997999;36.5146;-1.6470;33.5134;
3100148161997999;36.5268;-1.6836;33.5256;
3100148171997999;36.5268;-1.7080;33.5744;
3100148181997999;36.6366;-1.6958;33.5500;
3100148191997999;36.7220;-1.6714;33.4890;
3100148201997999;36.7342;-1.6592;33.4646;
3100148211997999;36.8440;-1.5494;33.3670;
3100148221997999;36.7830;-1.5128;33.4158;
3100148231997999;36.9538;-1.4640;33.2572;
3100148241997999;37.1124;-1.4274;33.0498;
3100148251997999;37.2100;-1.3908;33.0010;
3100148261997999;37.2466;-1.3420;32.9522;
3100148271997999;37.2954;-1.3420;32.8790;
3100148281997999;37.4052;-1.3786;32.7570;
3100148291997999;37.3686;-1.4152;32.8058;
3100148301997999;37.4052;-1.5006;32.8424;
3100148311997999;37.4418;-1.5860;32.8302;
3100148321997999;37.4784;-1.6592;32.7082;
3100148331997999;37.4662;-1.6958;32.6838;
3100148341997999;37.5028;-1.7934;32.6716;
3100148351997999;37.4418;-1.8910;32.7936;
3100148361997999;37.2832;-1.9642;32.9400;
3100148371997999;37.3320;-2.0740;32.8790;
3100148381997999;37.4418;-2.1106;32.6472;
3100148391997999;37.5272;-2.1716;32.4642;
3100148401997999;37.4784;-2.2570;32.6838;
3100148411997999;37.3930;-2.3790;32.7082;
3100148421997999;37.3930;-2.4522;32.7082;
3100148431997999;37.4906;-2.4888;32.5374;
3100148441997999;37.5882;-2.5742;32.3910;
3100148451997999;37.6126;-2.6718;32.3666;
3100148461997999;37.5882;-2.7572;32.3422;
3100148471997999;37.5272;-2.8548;32.3788;
3100148481997999;37.5760;-2.9646;32.2202;
3100148491997999;37.7712;-3.1110;31.9884;
3100148501997999;37.6736;-3.2696;32.0372;
3100148511997999;37.5760;-3.4648;32.1470;
3100148521997999;37.5028;-3.6356;32.2202;
3100148531997999;37.4296;-3.8186;32.2934;
3100148541997999;37.3564;-4.0138;32.3666;
3100148551997999;37.3564;-4.1724;32.3666;
3100148561997999;37.3320;-4.2822;32.3300;
3100148571997999;37.3076;-4.3432;32.3544;
3100148581997999;37.3564;-4.3920;32.2812;
3100148591997999;37.3442;-4.3676;32.1958;
3100148601997999;37.5028;-4.3310;32.0372;
3100148611997999;37.5638;-4.2456;31.8420;
3100148621997999;37.6126;-4.1968;31.7200;
3100148631997999;37.6980;-4.1968;31.5248;
3100148641997999;37.6858;-4.1724;31.5492;
3100148651997999;37.5272;-4.1358;31.6346;
3100148661997999;37.4662;-4.1724;31.6834;
3100148671997999;37.5028;-4.2090;31.5004;
3100148681997999;37.3564;-4.2822;31.5248;
3100148691997999;37.1978;-4.3432;31.6956;
3100148701997999;37.0758;-4.4164;31.8542;
3100148711997999;36.8196;-4.4652;32.1470;
3100148721997999;36.5512;-4.5384;32.3300;
3100148731997999;36.5512;-4.5750;32.3910;
3100148741997999;36.4658;-4.5994;32.3910;
3100148751997999;36.3072;-4.6116;32.6472;
3100148761997999;36.1730;-4.5628;32.8668;
3100148771997999;36.0388;-4.5506;32.9034;
3100148781997999;35.8924;-4.4652;32.9278;
3100148791997999;35.8558;-4.3798;32.9644;
3100148801997999;35.7582;-4.3188;33.0742;
3100148811997999;35.4410;-4.3676;33.4524;
3100148821997999;35.2580;-4.3676;33.6476;
3100148831997999;35.0994;-4.4042;33.7696;
3100148841997999;34.9652;-4.4408;33.8916;
3100148851997999;34.8920;-4.5018;33.9648;
3100148861997999;34.9530;-4.5750;33.9892;
3100148871997999;35.0872;-4.5750;33.8184;
3100148881997999;35.3068;-4.5262;33.5744;
3100148891997999;35.6240;-4.4408;33.0742;
3100148901997999;35.9046;-4.3432;32.7082;
3100148911997999;36.0876;-4.2700;32.5374;
3100148921997999;36.3194;-4.1846;32.2324;
3100148931997999;36.5756;-4.0870;31.9274;
3100148941997999;36.6976;-3.9894;31.8176;
3100148951997999;36.6488;-3.9528;31.8298;
3100148961997999;36.5146;-3.9528;31.9640;
3100148971997999;36.3682;-3.9284;32.1470;
3100148981997999;36.1730;-3.8918;32.3910;
3100148991997999;36.0754;-3.8796;32.4398;
3100149001997999;35.9778;-3.8186;32.5252;
3100149011997999;35.8192;-3.7942;32.6838;
3100149021997999;35.7216;-3.7332;32.7326;
3100149031997999;35.7826;-3.6600;32.6350;
3100149041997999;35.9900;-3.5624;32.3910;
3100149051997999;36.1364;-3.4404;32.2202;
3100149061997999;36.2828;-3.3916;32.0128;
3100149071997999;36.4048;-3.2818;31.8664;
3100149081997999;36.5390;-3.2696;31.7200;
3100149091997999;36.6732;-3.2086;31.6712;
3100149101997999;36.8318;-3.1476;31.5248;
3100149111997999;36.7708;-3.0988;31.5858;
3100149121997999;36.6732;-3.0866;31.7200;
3100149131997999;36.6000;-3.1110;31.8908;
3100149141997999;36.4292;-3.0988;32.2080;
3100149151997999;36.2096;-3.1354;32.4764;
3100149161997999;36.0998;-3.1110;32.6838;
3100149171997999;36.0266;-3.1232;32.7448;
3100149181997999;35.9168;-3.1476;32.8546;
3100149191997999;35.8802;-3.1598;33.0132;
3100149201997999;35.7826;-3.1354;33.1230;
3100149211997999;35.7460;-3.1110;33.2084;
3100149221997999;35.8070;-3.0622;33.1352;
3100149231997999;35.9046;-2.9524;33.0620;
3100149241997999;35.8314;-2.8670;33.1352;
3100149251997999;35.7704;-2.8182;33.2450;
3100149261997999;35.6606;-2.7450;33.3792;
3100149271997999;35.7826;-2.6474;33.2572;
3100149281997999;35.9168;-2.5986;33.1596;
3100149291997999;36.1486;-2.4522;32.9034;
3100149301997999;36.2340;-2.3790;32.7082;
3100149311997999;36.4902;-2.2814;32.5008;
3100149321997999;36.6854;-2.1716;32.2568;
3100149331997999;36.8928;-2.0496;32.1226;
3100149341997999;37.1734;-1.9154;31.8786;
3100149351997999;37.2344;-1.8056;31.8176;
3100149361997999;37.3076;-1.6470;31.7932;
3100149371997999;37.1978;-1.5860;31.9030;
3100149381997999;37.2100;-1.5006;32.0860;
3100149391997999;37.0270;-1.4030;32.3178;
3100149401997999;37.0636;-1.3542;32.3056;
3100149411997999;37.0880;-1.2444;32.3300;
3100149421997999;37.0026;-1.1956;32.3910;
3100149431997999;36.9904;-1.1468;32.3788;
3100149441997999;37.0148;-1.0614;32.3544;
3100149451997999;37.1124;-0.9516;32.2812;
3100149461997999;37.2466;-0.8174;32.0738;
3100149471997999;37.3076;-0.7564;31.9274;
3100149481997999;37.2222;-0.6466;32.0982;
3100149491997999;37.1490;-0.5490;32.1592;
3100149501997999;37.0514;-0.4270;32.3300;
3100149511997999;36.9904;-0.3782;32.5252;
3100149521997999;36.9050;-0.3172;32.6228;
3100149531997999;36.8684;-0.2928;32.7082;
3100149541997999;36.7952;-0.2684;32.8790;
3100149551997999;36.8318;-0.2196;32.9156;
3100149561997999;36.8806;-0.1708;32.8668;
3100149571997999;36.7708;-0.2074;33.0254;
3100149581997999;36.7220;-0.2196;33.0620;
3100149591997999;36.5512;-0.2074;33.1840;
3100149601997999;36.4902;-0.2318;33.2084;
3100149611997999;36.2828;-0.2562;33.4646;
3100149621997999;36.0632;-0.2928;33.5622;
3100149631997999;35.7216;-0.4148;33.7574;
3100149641997999;35.5264;-0.5002;34.0136;
3100149651997999;35.4776;-0.5002;34.0258;
3100149661997999;35.4410;-0.6100;34.0868;
3100149671997999;35.6362;-0.6466;33.8794;
3100149681997999;35.6728;-0.6710;33.8672;
3100149691997999;35.8436;-0.7808;33.6842;
3100149701997999;36.0876;-0.8418;33.4524;
3100149711997999;36.4292;-0.8418;33.2572;
3100149721997999;36.6244;-0.9150;33.0864;
3100149731997999;36.9294;-0.9638;32.8424;
3100149741997999;37.1002;-1.0126;32.6960;
3100149751997999;37.0392;-1.1346;32.8302;
3100149761997999;37.1368;-1.2688;32.7936;
3100149771997999;37.1490;-1.3664;32.7448;
3100149781997999;37.1124;-1.4762;32.8302;
3100149791997999;37.1002;-1.6592;32.8912;
3100149801997999;37.0392;-1.7446;32.9034;
3100149811997999;36.8562;-1.8544;33.0986;
3100149821997999;36.7464;-1.8910;33.2450;
3100149831997999;36.6122;-1.9642;33.4280;
3100149841997999;36.4292;-2.0496;33.6598;
3100149851997999;36.3072;-2.1350;33.8550;
3100149861997999;36.1608;-2.2082;34.0746;
3100149871997999;35.9290;-2.3302;34.3308;
3100149881997999;35.7460;-2.4522;34.5382;
3100149891997999;35.6484;-2.5986;34.6114;
3100149901997999;35.6240;-2.8670;34.5870;
3100149911997999;35.7338;-3.0500;34.3674;
3100149921997999;35.8924;-3.1842;34.1478;
3100149931997999;36.0754;-3.3062;33.9648;
3100149941997999;36.1364;-3.4526;33.8306;
3100149951997999;36.3682;-3.5990;33.5134;
3100149961997999;36.5512;-3.7332;33.2450;
3100149971997999;36.7220;-3.8918;33.0254;
3100149981997999;36.9782;-3.9406;32.7814;
3100149991997999;37.1856;-3.9894;32.5252;
3100150001997999;37.1978;-4.1724;32.4886;
3100150011997999;37.1734;-4.2700;32.4886;
3100150021997999;37.2466;-4.4652;32.4398;
3100150031997999;37.2344;-4.5628;32.4886;
3100150041997999;37.2344;-4.6726;32.5496;
3100150051997999;37.2344;-4.7702;32.5374;
3100150061997999;37.1246;-4.9044;32.6228;
3100150071997999;36.9782;-5.0264;32.8180;
3100150081997999;36.9782;-5.0752;32.8546;
3100150091997999;36.9538;-5.1240;32.8912;
3100150101997999;36.8928;-5.0996;32.9522;
3100150111997999;36.9538;-5.1240;32.8668;
3100150121997999;37.0270;-5.1606;32.7448;
3100150131997999;36.9538;-5.1606;32.8546;
3100150141997999;37.0758;-5.1118;32.7204;
3100150151997999;37.0636;-5.1118;32.7692;
3100150161997999;36.9660;-5.1118;32.8912;
3100150171997999;36.9050;-5.1850;32.8790;
3100150181997999;36.8440;-5.2216;32.8790;
3100150191997999;36.6976;-5.2094;33.0010;
3100150201997999;36.5512;-5.2704;33.0986;
3100150211997999;36.5878;-5.3314;33.0620;
3100150221997999;36.3072;-5.4290;33.2694;
3100150231997999;36.2584;-5.4900;33.2694;
3100150241997999;36.2950;-5.5754;33.1230;
3100150251997999;36.3560;-5.6120;33.0498;
3100150261997999;36.4536;-5.6852;32.9766;
3100150271997999;36.5512;-5.7218;32.8424;
3100150281997999;36.7220;-5.7462;32.6228;
3100150291997999;36.8684;-5.7950;32.4520;
3100150301997999;37.0392;-5.8072;32.3178;
3100150311997999;37.1124;-5.8438;32.2812;
3100150321997999;37.0880;-5.8072;32.2812;
3100150331997999;37.1002;-5.8072;32.3178;
3100150341997999;37.1734;-5.7584;32.3178;
3100150351997999;37.2588;-5.7584;32.3422;
3100150361997999;37.2222;-5.7584;32.4520;
3100150371997999;37.1368;-5.7462;32.5618;
3100150381997999;37.0514;-5.7584;32.5740;
3100150391997999;37.1612;-5.7218;32.4642;
3100150401997999;37.2710;-5.7462;32.3910;
3100150411997999;37.2466;-5.7584;32.4276;
3100150421997999;37.1856;-5.7706;32.3178;
3100150431997999;37.0880;-5.8194;32.2812;
3100150441997999;37.0636;-5.8560;32.3056;
3100150451997999;37.0148;-5.8682;32.2568;
3100150461997999;37.0148;-5.9048;32.2812;
3100150471997999;36.8928;-5.9414;32.3910;
3100150481997999;36.8318;-5.9414;32.4154;
3100150491997999;36.8562;-5.9658;32.3300;
3100150501997999;36.9172;-5.9780;32.2690;
3100150511997999;37.0514;-5.9170;32.1226;
3100150521997999;37.2100;-5.9048;31.9152;
3100150531997999;37.3564;-5.9292;31.6834;
3100150541997999;37.4662;-5.8804;31.5736;
3100150551997999;37.4784;-5.8804;31.4882;
3100150561997999;37.5516;-5.8316;31.3906;
3100150571997999;37.5882;-5.8072;31.2564;
3100150581997999;37.5516;-5.8194;31.2930;
3100150591997999;37.4540;-5.8316;31.4272;
3100150601997999;37.3076;-5.7462;31.5492;
3100150611997999;37.1124;-5.6852;31.7078;
3100150621997999;36.9660;-5.7218;31.7566;
3100150631997999;36.8074;-5.7340;31.8664;
3100150641997999;36.6366;-5.7096;31.9030;
3100150651997999;36.5512;-5.6974;31.9396;
3100150661997999;36.4658;-5.6364;32.0128;
3100150671997999;36.3438;-5.5754;32.0250;
3100150681997999;36.2584;-5.5144;32.0128;
3100150691997999;36.3316;-5.4168;31.9518;
3100150701997999;36.3438;-5.2460;31.8908;
3100150711997999;36.3804;-5.0752;31.7566;
3100150721997999;36.4292;-4.9288;31.6956;
3100150731997999;36.4414;-4.7214;31.6468;
3100150741997999;36.5268;-4.5506;31.4272;
3100150751997999;36.6732;-4.2578;31.2686;
3100150761997999;36.8562;-4.0504;31.1954;
3100150771997999;36.9904;-3.8064;31.1954;
3100150781997999;37.0880;-3.5868;31.1710;
3100150791997999;37.2588;-3.2818;31.1954;
3100150801997999;37.2954;-3.0256;31.2564;
3100150811997999;37.3320;-2.7450;31.3662;
3100150821997999;37.3076;-2.5132;31.5370;
3100150831997999;37.2588;-2.3790;31.6834;
3100150841997999;37.3442;-2.1838;31.6346;
3100150851997999;37.3686;-2.0008;31.5248;
3100150861997999;37.5150;-1.7690;31.4760;
3100150871997999;37.4906;-1.5982;31.4882;
3100150881997999;37.5882;-1.3908;31.4638;
3100150891997999;37.6858;-1.2688;31.5858;
3100150901997999;37.8322;-1.0736;31.6346;
3100150911997999;37.9298;-0.8784;31.6102;
3100150921997999;37.7956;-0.7076;31.8420;
3100150931997999;37.7224;-0.5002;32.1226;
3100150941997999;37.6492;-0.3538;32.3422;
3100150951997999;37.6736;-0.2440;32.4886;
3100150961997999;37.6492;-0.1586;32.7814;
3100150971997999;37.5272;0.0000;32.9766;
3100150981997999;37.4052;0.0732;33.2450;
3100150991997999;37.3442;0.1220;33.5622;
3100151001997999;37.2832;0.1708;33.7330;
3100151011997999;37.2954;0.1464;33.8062;
3100151021997999;37.2222;0.1220;33.9892;
3100151031997999;37.1002;0.0732;34.1600;
3100151041997999;37.1124;0.0366;34.1600;
3100151051997999;37.0758;-0.1220;34.3430;
3100151061997999;37.0148;-0.2318;34.4650;
3100151071997999;36.8074;-0.3294;34.6968;
3100151081997999;36.6732;-0.4514;35.0384;
3100151091997999;36.4414;-0.6222;35.3800;
3100151101997999;36.2584;-0.7686;35.6240;
3100151111997999;36.2096;-0.8662;35.7582;
3100151121997999;35.9534;-1.0614;36.0022;
3100151131997999;35.8070;-1.1956;36.0388;
3100151141997999;35.6972;-1.3542;36.1242;
3100151151997999;35.6728;-1.5738;36.0388;
3100151161997999;35.6972;-1.8056;35.8924;
3100151171997999;35.7582;-2.0008;35.7216;
3100151181997999;35.6606;-2.2814;35.5996;
3100151191997999;35.6118;-2.5986;35.5386;
3100151201997999;35.5752;-2.8304;35.4166;
3100151211997999;35.5142;-3.0988;35.3922;
3100151221997999;35.4410;-3.4038;35.2458;
3100151231997999;35.3922;-3.6722;35.0872;
3100151241997999;35.2824;-3.9162;35.0872;
3100151251997999;35.1360;-4.1358;35.0750;
3100151261997999;35.2580;-4.3676;34.8554;
3100151271997999;35.2824;-4.5994;34.6358;
3100151281997999;35.3434;-4.8190;34.3918;
3100151291997999;35.4776;-5.0264;34.0868;
3100151301997999;35.5752;-5.1484;33.8672;
3100151311997999;35.6606;-5.3070;33.7330;
3100151321997999;35.7582;-5.4290;33.3670;
3100151331997999;35.8070;-5.5876;33.1718;
3100151341997999;35.6484;-5.7218;33.3060;
3100151351997999;35.5630;-5.7950;33.3426;
3100151361997999;35.4776;-5.9048;33.4402;
3100151371997999;35.4776;-5.9414;33.3914;
3100151381997999;35.4898;-5.9902;33.3792;
3100151391997999;35.6484;-6.0146;33.2206;
3100151401997999;35.8192;-6.1000;33.0498;
3100151411997999;35.9778;-6.1000;32.9156;
3100151421997999;36.3194;-6.0634;32.5252;
3100151431997999;36.5390;-6.1122;32.2324;
3100151441997999;36.8074;-6.0634;32.0128;
3100151451997999;36.9904;-6.0878;31.7566;
3100151461997999;37.1002;-6.0878;31.5736;
3100151471997999;37.1978;-6.0878;31.4150;
3100151481997999;37.3320;-6.0268;31.3174;
3100151491997999;37.4662;-6.0146;31.0978;
3100151501997999;37.4662;-6.0390;31.1588;
3100151511997999;37.5882;-5.9902;31.1466;
3100151521997999;37.6492;-5.9658;30.9514;
3100151531997999;37.7590;-5.9658;30.8538;
3100151541997999;37.7712;-6.0024;30.9514;
3100151551997999;37.7590;-5.9780;31.0368;
3100151561997999;37.6614;-5.9902;31.2808;
3100151571997999;37.5272;-6.0390;31.5126;
3100151581997999;37.4540;-6.0634;31.7200;
3100151591997999;37.3320;-6.1732;31.7688;
3100151601997999;37.2710;-6.2464;31.9518;
3100151611997999;37.0636;-6.2830;32.1470;
3100151621997999;37.0514;-6.2952;32.0616;
3100151631997999;37.0148;-6.3318;32.1104;
3100151641997999;36.9782;-6.3684;32.1470;
3100151651997999;37.0758;-6.3196;32.0982;
3100151661997999;37.2344;-6.2586;31.9274;
3100151671997999;37.2100;-6.1610;32.1226;
3100151681997999;37.1856;-6.0634;32.2202;
3100151691997999;37.3442;-5.9780;32.3056;
3100151701997999;37.3198;-5.8560;32.5130;
3100151711997999;37.2588;-5.7340;32.6594;
3100151721997999;37.1856;-5.6242;32.7204;
3100151731997999;37.1246;-5.5144;32.8546;
3100151741997999;37.0758;-5.3802;32.9400;
3100151751997999;37.1612;-5.2582;32.7936;
3100151761997999;37.2344;-5.1606;32.7692;
3100151771997999;37.1124;-5.0264;32.9156;
3100151781997999;37.1002;-4.8556;33.0010;
3100151791997999;37.1368;-4.6726;33.0254;
3100151801997999;37.2588;-4.5018;33.0376;
3100151811997999;37.2954;-4.2822;33.0620;
3100151821997999;37.3320;-4.0748;33.0498;
3100151831997999;37.3808;-3.8064;33.0986;
3100151841997999;37.4052;-3.5624;33.0986;
3100151851997999;37.5516;-3.3184;33.0132;
3100151861997999;37.6614;-3.0988;32.8424;
3100151871997999;37.7956;-2.8792;32.7448;
3100151881997999;37.8566;-2.6352;32.7082;
3100151891997999;37.9908;-2.4522;32.5984;
3100151901997999;38.0518;-2.2814;32.6228;
3100151911997999;38.1250;-2.1838;32.5740;
3100151921997999;38.1738;-2.0252;32.6228;
3100151931997999;38.1494;-1.9032;32.6106;
3100151941997999;38.1494;-1.8422;32.7204;
3100151951997999;38.0030;-1.7324;32.8180;
3100151961997999;37.9054;-1.6592;32.9888;
3100151971997999;37.6614;-1.5982;33.3182;
3100151981997999;37.3564;-1.5372;33.6476;
3100151991997999;37.1978;-1.4762;33.9282;
3100152001997999;36.9294;-1.4396;34.1966;
3100152011997999;36.7952;-1.4152;34.3308;
3100152021997999;36.6610;-1.3664;34.5016;
3100152031997999;36.5390;-1.3542;34.6480;
3100152041997999;36.5146;-1.3542;34.6724;
3100152051997999;36.4780;-1.3542;34.5870;
3100152061997999;36.5512;-1.3054;34.4650;
3100152071997999;36.4658;-1.2810;34.5382;
3100152081997999;36.4414;-1.2932;34.5626;
3100152091997999;36.3194;-1.3176;34.8066;
3100152101997999;36.2462;-1.3298;35.0018;
3100152111997999;36.2462;-1.3664;35.0384;
3100152121997999;36.1974;-1.3786;35.0750;
3100152131997999;36.2828;-1.3908;35.1116;
3100152141997999;36.3438;-1.4518;35.0872;
3100152151997999;36.3804;-1.4884;35.0384;
3100152161997999;36.5634;-1.5250;34.8432;
3100152171997999;36.7098;-1.5006;34.5992;
3100152181997999;36.8684;-1.5494;34.3552;
3100152191997999;37.0636;-1.5616;34.2088;
3100152201997999;37.1246;-1.5860;34.1356;
3100152211997999;37.1246;-1.6104;34.0990;
3100152221997999;37.1490;-1.6226;34.1112;
3100152231997999;37.0758;-1.6470;34.2210;
3100152241997999;37.0026;-1.6348;34.3552;
3100152251997999;36.9904;-1.6836;34.3430;
3100152261997999;36.8562;-1.7080;34.4772;
3100152271997999;36.7952;-1.7324;34.4650;
3100152281997999;36.7952;-1.7202;34.4406;
3100152291997999;36.8074;-1.7568;34.3796;
3100152301997999;36.7464;-1.7812;34.4162;
3100152311997999;36.7586;-1.8178;34.3552;
3100152321997999;36.7098;-1.9032;34.3552;
3100152331997999;36.6488;-1.9886;34.4650;
3100152341997999;36.6732;-2.0252;34.5260;
3100152351997999;36.4780;-2.0618;34.7090;
3100152361997999;36.2706;-2.1716;35.0018;
3100152371997999;35.9900;-2.2814;35.3068;
3100152381997999;35.8314;-2.3912;35.4166;
3100152391997999;35.7338;-2.4766;35.5508;
3100152401997999;35.5142;-2.5742;35.6972;
3100152411997999;35.4654;-2.6352;35.6850;
3100152421997999;35.3190;-2.6962;35.6484;
3100152431997999;35.3556;-2.8426;35.6606;
3100152441997999;35.3678;-2.9280;35.6728;
3100152451997999;35.4776;-2.9890;35.5630;
3100152461997999;35.4898;-3.0866;35.5752;
3100152471997999;35.4532;-3.2086;35.5264;
3100152481997999;35.5264;-3.2330;35.4166;
3100152491997999;35.4654;-3.3428;35.5630;
3100152501997999;35.4166;-3.4770;35.5752;
3100152511997999;35.3068;-3.5746;35.6606;
3100152521997999;35.1360;-3.7332;35.6606;
3100152531997999;34.9774;-3.8796;35.8070;
3100152541997999;34.9530;-4.0260;35.7704;
3100152551997999;34.9164;-4.1358;35.7216;
3100152561997999;34.8310;-4.2822;35.8314;
3100152571997999;34.7334;-4.3920;35.7460;
3100152581997999;34.6114;-4.5384;35.6850;
3100152591997999;34.4772;-4.6848;35.5752;
3100152601997999;34.4772;-4.8068;35.3556;
3100152611997999;34.3552;-5.0386;35.2458;
3100152621997999;34.1722;-5.2216;35.0994;
3100152631997999;33.9770;-5.4534;35.0140;
3100152641997999;33.8794;-5.7340;34.8432;
3100152651997999;33.8428;-6.0146;34.5992;
3100152661997999;33.9770;-6.2342;34.2820;
3100152671997999;34.1356;-6.4782;33.8306;
3100152681997999;34.2454;-6.6368;33.4036;
3100152691997999;34.5260;-6.7222;32.8302;
3100152701997999;34.6114;-6.8076;32.4398;
3100152711997999;34.7334;-6.8930;32.0494;
3100152721997999;34.7578;-6.9052;31.6468;
3100152731997999;34.6968;-6.9174;31.3174;
3100152741997999;34.7090;-6.9174;30.9636;
3100152751997999;34.5870;-6.8930;30.7318;
3100152761997999;34.4894;-6.9296;30.5122;
3100152771997999;34.2820;-6.9052;30.3536;
3100152781997999;34.1844;-6.8686;30.1096;
3100152791997999;34.1844;-6.8076;29.8656;
3100152801997999;34.1600;-6.7100;29.4874;
3100152811997999;34.2088;-6.5880;29.1214;
3100152821997999;34.1234;-6.4294;28.8774;
3100152831997999;34.0868;-6.2220;28.5602;
3100152841997999;34.0990;-5.9658;28.3162;
3100152851997999;34.0258;-5.6730;28.0966;
3100152861997999;33.9648;-5.3314;27.8770;
3100152871997999;33.9282;-4.9410;27.5964;
3100152881997999;33.9892;-4.5994;27.3280;
3100152891997999;34.0014;-4.2456;27.1328;
3100152901997999;34.0014;-3.8918;26.9742;
3100152911997999;33.9160;-3.4892;26.9132;
3100152921997999;33.8550;-3.0378;26.8766;
3100152931997999;33.7940;-2.6718;26.8766;
3100152941997999;33.7940;-2.3790;26.8156;
3100152951997999;33.8550;-2.0008;26.7668;
3100152961997999;33.8916;-1.6226;26.6692;
3100152971997999;33.8550;-1.2200;26.6326;
3100152981997999;33.7818;-0.8174;26.6692;
3100152991997999;33.8794;-0.5002;26.5838;
3100153001997999;34.0014;-0.1952;26.4496;
3100153011997999;34.1722;0.1830;26.2300;
3100153021997999;34.3918;0.5856;26.0592;
3100153031997999;34.4284;0.9516;25.9860;
3100153041997999;34.5870;1.3054;25.9250;
3100153051997999;34.8920;1.6958;25.7664;
3100153061997999;35.2702;2.0984;25.4858;
3100153071997999;35.6118;2.5132;25.3516;
3100153081997999;35.7338;2.9036;25.3760;
3100153091997999;35.9900;3.3062;25.3394;
3100153101997999;36.0388;3.6966;25.5346;
3100153111997999;36.2584;4.0748;25.6810;
3100153121997999;36.4658;4.4652;25.7908;
3100153131997999;36.5024;4.8068;26.0592;
3100153141997999;36.6610;5.1972;26.1690;
3100153151997999;36.7708;5.5632;26.3032;
3100153161997999;36.9660;5.9414;26.4252;
3100153171997999;37.1856;6.2708;26.4984;
3100153181997999;37.4662;6.5880;26.5472;
3100153191997999;37.6370;6.8808;26.7058;
3100153201997999;37.7712;7.1736;26.9376;
3100153211997999;37.9298;7.4298;27.1572;
3100153221997999;37.9420;7.6250;27.5354;
3100153231997999;37.8932;7.7958;28.1088;
3100153241997999;37.8932;7.9056;28.5602;
3100153251997999;37.7712;8.0032;29.1580;
3100153261997999;37.8200;8.0886;29.4874;
3100153271997999;37.9054;8.1252;29.7070;
3100153281997999;37.8810;8.1252;30.1340;
3100153291997999;37.8566;8.0642;30.5488;
3100153301997999;37.9542;7.9788;30.8782;
3100153311997999;38.0884;7.8812;31.0490;
3100153321997999;38.2104;7.7836;31.2320;
3100153331997999;38.2714;7.6616;31.5248;
3100153341997999;38.2958;7.5396;31.8664;
3100153351997999;38.1738;7.4542;32.3544;
3100153361997999;38.0396;7.3078;32.8180;
3100153371997999;38.0274;7.1736;33.1474;
3100153381997999;37.8932;7.0150;33.5378;
3100153391997999;37.8932;6.8564;33.7940;
3100153401997999;37.8566;6.6978;34.0990;
3100153411997999;37.8932;6.5148;34.2820;
3100153421997999;37.9176;6.2952;34.4528;
3100153431997999;37.9542;5.9902;34.5504;
3100153441997999;38.0884;5.7462;34.5992;
3100153451997999;38.1128;5.5510;34.6846;
3100153461997999;38.2836;5.3436;34.5992;
3100153471997999;38.3202;5.1118;34.5992;
3100153481997999;38.2348;4.8800;34.6724;
3100153491997999;38.3324;4.6604;34.6114;
3100153501997999;38.3202;4.4408;34.6724;
3100153511997999;38.4422;4.2700;34.5626;
3100153521997999;38.5520;4.0870;34.4162;
3100153531997999;38.5886;3.9040;34.3430;
3100153541997999;38.4788;3.6600;34.5016;
3100153551997999;38.3080;3.4892;34.7090;
3100153561997999;38.2836;3.2940;34.7944;
3100153571997999;38.2348;3.1110;34.8676;
3100153581997999;38.1372;2.9646;34.9530;
3100153591997999;38.1006;2.7938;35.0506;
3100153601997999;37.8322;2.6352;35.3312;
3100153611997999;37.6736;2.4400;35.4654;
3100153621997999;37.6126;2.3180;35.5142;
3100153631997999;37.5882;2.1716;35.4776;
3100153641997999;37.6370;2.0252;35.4532;
3100153651997999;37.5394;1.9276;35.4776;
3100153661997999;37.5760;1.8422;35.4898;
3100153671997999;37.5516;1.7568;35.4776;
3100153681997999;37.6614;1.6226;35.3922;
3100153691997999;37.9176;1.5982;35.2580;
3100153701997999;38.0762;1.5250;35.1604;
3100153711997999;38.2714;1.4762;35.0262;
3100153721997999;38.3934;1.4518;34.8798;
3100153731997999;38.5154;1.4030;34.7822;
3100153741997999;38.7228;1.3542;34.5382;
3100153751997999;38.8814;1.3176;34.3186;
3100153761997999;39.0766;1.3054;34.1112;
3100153771997999;38.9912;1.2444;34.0868;
3100153781997999;38.9912;1.1834;34.0502;
3100153791997999;39.1742;1.1346;33.8672;
3100153801997999;39.2474;1.0736;33.8672;
3100153811997999;39.4060;1.0492;33.6842;
3100153821997999;39.6622;1.0126;33.4280;
3100153831997999;39.7354;0.9638;33.4280;
3100153841997999;39.8086;0.9150;33.3914;
3100153851997999;40.0038;0.9516;33.1962;
3100153861997999;40.2478;0.9882;32.9644;
3100153871997999;40.2966;1.0126;32.8912;
3100153881997999;40.3820;1.0492;32.7570;
3100153891997999;40.3698;1.0248;32.7814;
3100153901997999;40.1990;1.0004;32.9888;
3100153911997999;40.0038;1.0248;33.1352;
3100153921997999;39.8452;1.0370;33.2450;
3100153931997999;39.6378;1.0370;33.4646;
3100153941997999;39.3572;1.0126;33.8062;
3100153951997999;39.0766;0.9638;34.1844;
3100153961997999;38.8936;0.9760;34.3308;
3100153971997999;38.7472;1.0492;34.4772;
3100153981997999;38.5764;1.1590;34.6236;
3100153991997999;38.4544;1.2078;34.7700;
3100154001997999;38.3690;1.3298;34.8188;
3100154011997999;38.2592;1.3542;34.8432;
3100154021997999;38.1372;1.4884;34.8554;
3100154031997999;38.0274;1.6470;34.9042;
3100154041997999;37.9786;1.7690;34.8920;
3100154051997999;37.9542;1.8422;34.9164;
3100154061997999;37.8932;1.9398;34.9286;
3100154071997999;37.9054;2.0496;34.8554;
3100154081997999;37.9420;2.1350;34.8066;
3100154091997999;38.0884;2.2692;34.6602;
3100154101997999;38.4056;2.4034;34.2332;
3100154111997999;38.6618;2.4644;33.8428;
3100154121997999;38.7838;2.5376;33.7818;
3100154131997999;38.7594;2.6230;33.7818;
3100154141997999;38.8204;2.6840;33.7208;
3100154151997999;38.8936;2.7450;33.6842;
3100154161997999;38.8692;2.7450;33.5988;
3100154171997999;38.7350;2.7206;33.6964;
3100154181997999;38.4300;2.7084;34.0624;
3100154191997999;38.2470;2.6840;34.2576;
3100154201997999;38.1128;2.6352;34.3918;
3100154211997999;38.0518;2.5986;34.3308;
3100154221997999;38.0030;2.5376;34.2942;
3100154231997999;37.9176;2.5010;34.3796;
3100154241997999;37.9542;2.4888;34.2698;
3100154251997999;38.0274;2.5376;34.2576;
3100154261997999;38.2348;2.5132;33.9770;
3100154271997999;38.3080;2.5864;33.8672;
3100154281997999;38.4666;2.6474;33.5866;
3100154291997999;38.6984;2.6718;33.2938;
3100154301997999;38.7838;2.7084;33.2084;
3100154311997999;38.7716;2.7694;33.0498;
3100154321997999;38.7594;2.8182;33.0620;
3100154331997999;38.7350;2.8304;33.0498;
3100154341997999;38.6862;2.8670;33.0498;
3100154351997999;38.5886;2.8792;33.1352;
3100154361997999;38.4422;2.9036;33.3182;
3100154371997999;38.3446;2.9768;33.4524;
3100154381997999;38.2714;3.0500;33.5012;
3100154391997999;38.5032;3.1110;33.2328;
3100154401997999;38.5764;3.1720;33.1596;
3100154411997999;38.6008;3.2086;33.0010;
3100154421997999;38.6740;3.2696;32.9156;
3100154431997999;38.7716;3.2818;32.7570;
3100154441997999;39.0522;3.3062;32.3910;
3100154451997999;39.1254;3.3306;32.2568;
3100154461997999;39.0644;3.3428;32.2690;
3100154471997999;38.9546;3.3306;32.3788;
3100154481997999;38.8814;3.3306;32.4032;
3100154491997999;38.9180;3.3306;32.4276;
3100154501997999;38.8692;3.3550;32.4276;
3100154511997999;38.9424;3.3794;32.3178;
3100154521997999;38.9058;3.4282;32.2934;
3100154531997999;38.8326;3.4526;32.3666;
3100154541997999;39.0522;3.4892;32.0860;
3100154551997999;39.1498;3.5136;31.9518;
3100154561997999;39.2596;3.5624;31.7932;
3100154571997999;39.4182;3.6478;31.6224;
3100154581997999;39.4304;3.6478;31.5858;
3100154591997999;39.4914;3.7210;31.5126;
3100154601997999;39.4792;3.7210;31.5126;
3100154611997999;39.4548;3.7210;31.4760;
3100154621997999;39.4182;3.7332;31.5492;
3100154631997999;39.3450;3.7210;31.5492;
3100154641997999;39.2840;3.6966;31.6102;
3100154651997999;39.1620;3.6478;31.5980;
3100154661997999;39.0888;3.6234;31.6224;
3100154671997999;38.9668;3.5624;31.7322;
3100154681997999;38.9058;3.5380;31.7932;
3100154691997999;38.9058;3.4892;31.7932;
3100154701997999;38.7716;3.4160;31.8786;
3100154711997999;38.6374;3.3672;32.0616;
3100154721997999;38.6008;3.3794;32.1836;
3100154731997999;38.5032;3.3306;32.3788;
3100154741997999;38.4178;3.2940;32.5496;
3100154751997999;38.3446;3.2452;32.7326;
3100154761997999;38.1494;3.1720;32.8790;
3100154771997999;38.2592;3.1354;32.8180;
3100154781997999;38.3568;3.1354;32.7814;
3100154791997999;38.4788;3.1110;32.6350;
3100154801997999;38.5032;3.0622;32.6228;
3100154811997999;38.5032;3.0378;32.5618;
3100154821997999;38.6618;3.0500;32.3666;
3100154831997999;38.6740;3.0622;32.2202;
3100154841997999;38.7472;3.0866;32.1592;
3100154851997999;38.6496;3.1354;32.3178;
3100154861997999;38.5520;3.0988;32.3300;
3100154871997999;38.5398;3.1720;32.4642;
3100154881997999;38.5398;3.1842;32.4764;
3100154891997999;38.5398;3.1842;32.4764;
3100154901997999;38.4178;3.2086;32.6594;
3100154911997999;38.4300;3.1842;32.5862;
3100154921997999;38.4788;3.2208;32.5618;
3100154931997999;38.5276;3.2086;32.5618;
3100154941997999;38.6618;3.2086;32.3910;
3100154951997999;38.8082;3.1842;32.1714;
3100154961997999;39.0278;3.1964;31.8176;
3100154971997999;39.2230;3.2086;31.5858;
3100154981997999;39.3572;3.2574;31.3906;
3100154991997999;39.4670;3.3062;31.3174;
3100155001997999;39.5768;3.3550;31.1832;
3100155011997999;39.6134;3.3428;31.0368;
3100155021997999;39.5158;3.4038;31.1710;
3100155031997999;39.3694;3.4282;31.2442;
3100155041997999;39.2840;3.4404;31.3296;
3100155051997999;39.1498;3.4648;31.5004;
3100155061997999;39.1132;3.4160;31.5370;
3100155071997999;39.1864;3.4404;31.4150;
3100155081997999;39.1986;3.4160;31.3906;
3100155091997999;39.2840;3.4526;31.3052;
3100155101997999;39.4304;3.4892;31.0246;
3100155111997999;39.4182;3.4648;31.0856;
3100155121997999;39.4060;3.4526;31.1344;
3100155131997999;39.2840;3.4526;31.2442;
3100155141997999;39.2352;3.4404;31.2808;
3100155151997999;39.0644;3.3794;31.5126;
3100155161997999;38.8936;3.3916;31.6468;
3100155171997999;38.7594;3.3550;31.7932;
3100155181997999;38.5154;3.3306;32.0860;
3100155191997999;38.5276;3.3306;32.0372;
3100155201997999;38.4056;3.3550;32.1592;
3100155211997999;38.5032;3.3550;31.9396;
3100155221997999;38.6496;3.4160;31.8176;
3100155231997999;38.6008;3.4892;31.8176;
3100155241997999;38.6374;3.4526;31.8908;
3100155251997999;38.8448;3.4526;31.6834;
3100155261997999;39.1132;3.4526;31.4150;
3100155271997999;39.2962;3.5380;31.2198;
3100155281997999;39.3328;3.5990;31.0734;
3100155291997999;39.4548;3.6478;31.0734;
3100155301997999;39.4792;3.6356;31.0734;
3100155311997999;39.5646;3.6600;31.0002;
3100155321997999;39.6134;3.7332;30.9026;
3100155331997999;39.2230;3.7820;31.2320;
3100155341997999;39.0766;3.8430;31.4760;
3100155351997999;38.9424;3.8674;31.6346;
3100155361997999;38.9912;3.8918;31.5980;
3100155371997999;38.9668;3.9284;31.5980;
3100155381997999;38.7960;3.9772;31.6834;
3100155391997999;38.8204;4.0260;31.6590;
3100155401997999;38.9058;4.1114;31.5492;
3100155411997999;39.0522;4.2090;31.3174;
3100155421997999;39.1132;4.3310;31.1954;
3100155431997999;38.8814;4.4042;31.4150;
3100155441997999;38.7716;4.4774;31.5248;
3100155451997999;38.6862;4.5994;31.6224;
3100155461997999;38.5642;4.7214;31.6712;
3100155471997999;38.5642;4.8800;31.7200;
3100155481997999;38.3690;4.9654;31.7810;
3100155491997999;38.3202;5.0874;31.8786;
3100155501997999;38.1616;5.1850;32.0372;
3100155511997999;38.2226;5.2582;31.8176;
3100155521997999;38.1860;5.3802;31.9518;
3100155531997999;38.1372;5.4900;31.9884;
3100155541997999;38.0762;5.5388;32.0128;
3100155551997999;37.9664;5.6364;32.0982;
3100155561997999;37.8932;5.7340;32.2080;
3100155571997999;37.8444;5.8316;32.3178;
3100155581997999;37.8688;5.9170;32.2812;
3100155591997999;37.8444;6.0268;32.2690;
3100155601997999;37.9176;6.1000;32.1104;
3100155611997999;37.9298;6.1244;31.9396;
3100155621997999;38.1616;6.2586;31.6834;
3100155631997999;38.3446;6.2586;31.3418;
3100155641997999;38.5642;6.3196;31.0124;
3100155651997999;38.7594;6.3196;30.7440;
3100155661997999;38.8448;6.3196;30.5244;
3100155671997999;39.0522;6.3440;30.4024;
3100155681997999;39.0888;6.3562;30.3658;
3100155691997999;39.1254;6.3928;30.3780;
3100155701997999;39.1254;6.4172;30.4878;
3100155711997999;39.0522;6.4538;30.5976;
3100155721997999;38.9790;6.4538;30.7928;
3100155731997999;38.9790;6.5148;30.9148;
3100155741997999;39.0278;6.5148;30.8904;
3100155751997999;39.0644;6.5758;30.8172;
3100155761997999;39.1986;6.5758;30.6708;
3100155771997999;39.2352;6.5758;30.6098;
3100155781997999;39.2352;6.5148;30.5000;
3100155791997999;39.2962;6.5026;30.5000;
3100155801997999;39.3572;6.5392;30.4024;
3100155811997999;39.4304;6.4782;30.2316;
3100155821997999;39.4304;6.4538;30.3048;
3100155831997999;39.2230;6.3806;30.6098;
3100155841997999;39.0522;6.3440;30.8294;
3100155851997999;38.9058;6.3562;31.0490;
3100155861997999;38.8326;6.3318;31.1466;
3100155871997999;38.7472;6.3196;31.2076;
3100155881997999;38.7350;6.2830;31.2564;
3100155891997999;38.6252;6.2464;31.3906;
3100155901997999;38.5276;6.2220;31.5248;
3100155911997999;38.6008;6.1976;31.3174;
3100155921997999;38.7228;6.1732;31.1588;
3100155931997999;38.9546;6.1610;30.8416;
3100155941997999;39.1132;6.1976;30.7074;
3100155951997999;39.3084;6.2220;30.5000;
3100155961997999;39.4304;6.2220;30.3658;
3100155971997999;39.6500;6.2952;30.1340;
3100155981997999;39.7598;6.3318;29.8900;
3100155991997999;39.9794;6.3806;29.7314;
3100156001997999;40.1136;6.4416;29.5728;
3100156011997999;40.1624;6.4050;29.5118;
3100156021997999;40.2478;6.3928;29.4264;
3100156031997999;40.1014;6.3562;29.6338;
3100156041997999;40.1014;6.3074;29.6948;
3100156051997999;40.0160;6.2342;29.8290;
3100156061997999;40.0526;6.1610;29.8412;
3100156071997999;40.0038;6.0634;29.9754;
3100156081997999;39.6744;5.9902;30.3780;
3100156091997999;39.5158;5.9414;30.7684;
3100156101997999;39.2962;5.8682;31.1710;
3100156111997999;39.0888;5.7584;31.3784;
3100156121997999;38.8570;5.6608;31.7566;
3100156131997999;38.5032;5.5266;32.1348;
3100156141997999;38.1738;5.3802;32.5252;
3100156151997999;37.9420;5.2460;32.8790;
3100156161997999;37.8444;5.0752;32.9644;
3100156171997999;37.6980;4.8922;33.1352;
3100156181997999;37.4906;4.6970;33.2694;
3100156191997999;37.5272;4.4652;33.2450;
3100156201997999;37.5028;4.2334;33.2694;
3100156211997999;37.6370;4.0260;33.1352;
3100156221997999;37.8200;3.8552;33.0864;
3100156231997999;37.8200;3.6112;32.9522;
3100156241997999;37.9420;3.3550;32.7814;
3100156251997999;38.0030;3.1354;32.6594;
3100156261997999;38.1006;2.8548;32.5984;
3100156271997999;38.1982;2.7206;32.6106;
3100156281997999;38.2226;2.5010;32.6106;
3100156291997999;38.1860;2.3058;32.7204;
3100156301997999;38.0640;2.0984;32.8912;
3100156311997999;38.0518;1.8788;32.9888;
3100156321997999;38.0396;1.7446;33.1962;
3100156331997999;37.9542;1.5494;33.3670;
3100156341997999;37.8444;1.4030;33.5256;
3100156351997999;37.6614;1.1590;33.7696;
3100156361997999;37.5638;0.9882;33.7696;
3100156371997999;37.5028;0.8052;33.8672;
3100156381997999;37.4296;0.6832;33.9770;
3100156391997999;37.3320;0.5612;34.0624;
3100156401997999;37.2344;0.4514;34.1234;
3100156411997999;37.1978;0.3294;34.0624;
3100156421997999;37.2954;0.2806;34.0014;
3100156431997999;37.2588;0.2684;34.0502;
3100156441997999;37.1734;0.2074;34.1722;
3100156451997999;37.1734;0.1952;34.2454;
3100156461997999;37.2588;0.0976;33.9892;
3100156471997999;37.3320;-0.0122;33.9160;
3100156481997999;37.3564;-0.1830;33.9282;
3100156491997999;37.3808;-0.3416;33.9282;
3100156501997999;37.4540;-0.6100;33.8062;
3100156511997999;37.6248;-0.9150;33.5256;
3100156521997999;37.8810;-1.2566;33.2084;
3100156531997999;37.9420;-1.6836;32.9888;
3100156541997999;38.0396;-2.0862;32.8790;
3100156551997999;38.1738;-2.4278;32.7326;
3100156561997999;38.2104;-2.8670;32.5984;
3100156571997999;38.2226;-3.2818;32.5374;
3100156581997999;38.1982;-3.6112;32.4398;
3100156591997999;38.2104;-3.9040;32.3910;
3100156601997999;38.0640;-4.1724;32.5252;
3100156611997999;38.0030;-4.3798;32.5374;
3100156621997999;37.9176;-4.5872;32.5374;
3100156631997999;37.7468;-4.8068;32.6594;
3100156641997999;37.8078;-4.8922;32.5496;
3100156651997999;37.8444;-4.9654;32.5008;
3100156661997999;37.8688;-5.0752;32.5130;
3100156671997999;37.9298;-5.1606;32.4032;
3100156681997999;38.0762;-5.1606;32.2690;
3100156691997999;38.3202;-5.1728;32.0372;
3100156701997999;38.3812;-5.1606;32.0860;
3100156711997999;38.6252;-5.1484;31.7932;
3100156721997999;38.8204;-5.1850;31.5614;
3100156731997999;38.9912;-5.2094;31.3540;
3100156741997999;39.1620;-5.2094;31.1588;
3100156751997999;39.3816;-5.2460;30.9636;
3100156761997999;39.5158;-5.2948;30.7562;
3100156771997999;39.6256;-5.3070;30.5854;
3100156781997999;39.6744;-5.3314;30.4024;
3100156791997999;39.6378;-5.3314;30.4024;
3100156801997999;39.3328;-5.3680;30.7074;
3100156811997999;39.0156;-5.3558;30.9758;
3100156821997999;38.6862;-5.3680;31.3540;
3100156831997999;38.2226;-5.2948;31.7322;
3100156841997999;38.1006;-5.2460;31.8786;
3100156851997999;37.8200;-5.2338;32.1836;
3100156861997999;37.5638;-5.2460;32.4886;
3100156871997999;37.5394;-5.2216;32.5740;
3100156881997999;37.5272;-5.1850;32.3422;
3100156891997999;37.4662;-5.2338;32.3788;
3100156901997999;37.5028;-5.2460;32.3666;
3100156911997999;37.5272;-5.2948;32.3666;
3100156921997999;37.3686;-5.4046;32.5984;
3100156931997999;37.2588;-5.4534;32.7326;
3100156941997999;37.2466;-5.5388;32.7204;
3100156951997999;37.0758;-5.6242;32.8912;
3100156961997999;36.9782;-5.7218;33.0864;
3100156971997999;37.1246;-5.7828;33.0498;
3100156981997999;37.1856;-5.8804;32.7936;
3100156991997999;37.2466;-6.0390;32.6228;
3100157001997999;37.2466;-6.1122;32.5252;
3100157011997999;37.2832;-6.2708;32.3788;
3100157021997999;37.4662;-6.3196;32.2202;
3100157031997999;37.5394;-6.4538;32.0982;
3100157041997999;37.7712;-6.5514;32.0006;
3100157051997999;37.9908;-6.5758;31.6834;
3100157061997999;38.0884;-6.6734;31.5858;
3100157071997999;38.1982;-6.6978;31.5736;
3100157081997999;38.2226;-6.7588;31.6102;
3100157091997999;38.2470;-6.8320;31.5858;
3100157101997999;38.1616;-6.9052;31.7322;
3100157111997999;37.9542;-6.9662;31.9030;
3100157121997999;37.6248;-7.0028;32.2324;
3100157131997999;37.2222;-7.1004;32.7082;
3100157141997999;36.9294;-7.1370;33.0742;
3100157151997999;36.7464;-7.2346;33.2450;
3100157161997999;36.6854;-7.2956;33.2084;
3100157171997999;36.7220;-7.3322;33.2084;
3100157181997999;36.5634;-7.3444;33.3304;
3100157191997999;36.4658;-7.3566;33.4768;
3100157201997999;36.4658;-7.4054;33.5134;
3100157211997999;36.3926;-7.4664;33.5622;
3100157221997999;36.2706;-7.5274;33.7574;
3100157231997999;36.0388;-7.5396;34.0746;
3100157241997999;35.7704;-7.5518;34.4406;
3100157251997999;35.4410;-7.5640;34.8798;
3100157261997999;35.2824;-7.6372;35.1116;
3100157271997999;35.2580;-7.6738;35.1848;
3100157281997999;35.3068;-7.6372;35.0628;
3100157291997999;35.4044;-7.6494;34.9408;
3100157301997999;35.6362;-7.6250;34.6480;
3100157311997999;35.8802;-7.5640;34.3430;
3100157321997999;36.0632;-7.5518;34.0868;
3100157331997999;36.2828;-7.5152;33.7818;
3100157341997999;36.5878;-7.4908;33.4402;
3100157351997999;36.8196;-7.4420;33.1718;
3100157361997999;36.9050;-7.4664;33.0864;
3100157371997999;37.1246;-7.4420;32.8546;
3100157381997999;37.1124;-7.3932;32.8302;
3100157391997999;37.2954;-7.3932;32.6350;
3100157401997999;37.4174;-7.3566;32.4642;
3100157411997999;37.5394;-7.3444;32.1958;
3100157421997999;37.7346;-7.3078;31.9518;
3100157431997999;37.7346;-7.3444;31.9396;
3100157441997999;37.7346;-7.3810;31.9884;
3100157451997999;37.5516;-7.4054;32.1470;
3100157461997999;37.4418;-7.4542;32.2812;
3100157471997999;37.2954;-7.5640;32.5130;
3100157481997999;37.1856;-7.6494;32.6960;
3100157491997999;37.0026;-7.7104;33.0498;
3100157501997999;36.8074;-7.7714;33.2328;
3100157511997999;36.7098;-7.8202;33.2938;
3100157521997999;36.6610;-7.8324;33.3426;
3100157531997999;36.9050;-7.8446;33.0132;
3100157541997999;36.9904;-7.8812;32.9156;
3100157551997999;36.9050;-7.8568;32.9400;
3100157561997999;36.8562;-7.8812;33.0010;
3100157571997999;36.9416;-7.8934;32.8912;
3100157581997999;36.8684;-7.9056;32.9278;
3100157591997999;36.9538;-7.8934;32.8424;
3100157601997999;36.8318;-7.8934;33.0132;
3100157611997999;36.4170;-7.8690;33.4158;
3100157621997999;36.3682;-7.8202;33.4402;
3100157631997999;36.3194;-7.8324;33.4280;
3100157641997999;36.4658;-7.7470;33.2938;
3100157651997999;36.7220;-7.7104;32.9888;
3100157661997999;36.8562;-7.6128;32.7814;
3100157671997999;36.9782;-7.5030;32.6960;
3100157681997999;37.1612;-7.4786;32.2934;
3100157691997999;37.3442;-7.4542;32.1958;
3100157701997999;37.3930;-7.4786;32.1104;
3100157711997999;37.4052;-7.4908;32.1104;
3100157721997999;37.3564;-7.5274;32.2446;
3100157731997999;37.0636;-7.5396;32.5496;
3100157741997999;36.8806;-7.6006;32.8546;
3100157751997999;36.7586;-7.6738;33.0498;
3100157761997999;36.6854;-7.6860;33.1962;
3100157771997999;36.7342;-7.6738;33.2206;
3100157781997999;36.6854;-7.6616;33.2328;
3100157791997999;36.8196;-7.6250;33.1596;
3100157801997999;36.8196;-7.6128;33.0620;
3100157811997999;36.9050;-7.6006;32.9522;
3100157821997999;37.0758;-7.5396;32.7814;
3100157831997999;37.1368;-7.5518;32.5984;
3100157841997999;37.2344;-7.5518;32.4642;
3100157851997999;37.3808;-7.5518;32.2446;
3100157861997999;37.4540;-7.5274;32.1836;
3100157871997999;37.5272;-7.4664;32.1104;
3100157881997999;37.5882;-7.4420;31.9518;
3100157891997999;37.5272;-7.4664;31.9518;
3100157901997999;37.5638;-7.4542;31.9030;
3100157911997999;37.6248;-7.3810;31.8420;
3100157921997999;37.6858;-7.2956;31.8542;
3100157931997999;37.4784;-7.2834;32.1592;
3100157941997999;37.3808;-7.2224;32.2690;
3100157951997999;37.3198;-7.1370;32.3666;
3100157961997999;37.2588;-7.0882;32.4642;
3100157971997999;37.3076;-7.0272;32.5130;
3100157981997999;37.1734;-6.9418;32.6594;
3100157991997999;37.1002;-6.9052;32.7082;
3100158001997999;37.0148;-6.8564;32.8058;
3100158011997999;37.0880;-6.7710;32.6472;
3100158021997999;37.1368;-6.7344;32.5984;
3100158031997999;37.0758;-6.7466;32.6716;
3100158041997999;36.9782;-6.6856;32.6960;
3100158051997999;36.9416;-6.6002;32.6594;
3100158061997999;36.9660;-6.5880;32.6350;
3100158071997999;36.9172;-6.5392;32.7326;
3100158081997999;36.9416;-6.4904;32.7448;
3100158091997999;37.0514;-6.3928;32.6594;
3100158101997999;37.0392;-6.3684;32.6594;
3100158111997999;36.9782;-6.2708;32.7326;
3100158121997999;37.0514;-6.1976;32.7448;
3100158131997999;36.8806;-6.1854;32.9766;
3100158141997999;36.8318;-6.1366;33.1230;
3100158151997999;36.7220;-6.1244;33.2816;
3100158161997999;36.6122;-6.1000;33.3182;
3100158171997999;36.4780;-6.0756;33.5378;
3100158181997999;36.4048;-6.0146;33.6842;
3100158191997999;36.5268;-6.0390;33.5988;
3100158201997999;36.3804;-6.0024;33.6964;
3100158211997999;36.4292;-5.9170;33.6842;
3100158221997999;36.3316;-5.8560;33.7696;
3100158231997999;36.2706;-5.7584;33.7574;
3100158241997999;36.2340;-5.6730;33.8916;
3100158251997999;36.0632;-5.6364;33.9892;
3100158261997999;36.1364;-5.5754;33.8794;
3100158271997999;36.1486;-5.5632;33.7818;
3100158281997999;36.2096;-5.5144;33.7818;
3100158291997999;36.4292;-5.5022;33.5012;
3100158301997999;36.5756;-5.4900;33.3426;
3100158311997999;36.7586;-5.4534;33.0620;
3100158321997999;36.8928;-5.4534;32.7814;
3100158331997999;37.0514;-5.4534;32.5984;
3100158341997999;37.0514;-5.4656;32.6716;
3100158351997999;36.9538;-5.4290;32.8424;
3100158361997999;36.8806;-5.4046;32.9278;
3100158371997999;36.6976;-5.3802;33.1962;
3100158381997999;36.5512;-5.4046;33.3182;
3100158391997999;36.5024;-5.4656;33.6110;
3100158401997999;36.4658;-5.4656;33.7696;
3100158411997999;36.3682;-5.5144;33.9038;
3100158421997999;36.4292;-5.5144;33.8306;
3100158431997999;36.4536;-5.5266;33.7330;
3100158441997999;36.6366;-5.5632;33.4890;
3100158451997999;36.7952;-5.5632;33.2938;
3100158461997999;36.9538;-5.5632;33.0986;
3100158471997999;37.0636;-5.5632;32.8668;
3100158481997999;37.0880;-5.5876;32.7692;
3100158491997999;37.1978;-5.5876;32.6594;
3100158501997999;37.2222;-5.6242;32.6350;
3100158511997999;37.1978;-5.6242;32.6716;
3100158521997999;37.1246;-5.6608;32.7448;
3100158531997999;36.9294;-5.7096;32.9400;
3100158541997999;36.8318;-5.7218;33.0254;
3100158551997999;36.7220;-5.7584;33.1718;
3100158561997999;36.6000;-5.8194;33.3670;
3100158571997999;36.5268;-5.8804;33.4890;
3100158581997999;36.3194;-5.9170;33.7330;
3100158591997999;36.1974;-6.0024;33.9648;
3100158601997999;36.0510;-6.0268;34.2332;
3100158611997999;35.9778;-6.0390;34.2698;
3100158621997999;35.9290;-6.1366;34.3918;
3100158631997999;35.8680;-6.1610;34.4284;
3100158641997999;35.8924;-6.1732;34.3430;
3100158651997999;35.8924;-6.1854;34.3796;
3100158661997999;35.9412;-6.2220;34.1966;
3100158671997999;36.1364;-6.2098;33.9648;
3100158681997999;36.2340;-6.2586;33.8550;
3100158691997999;36.1974;-6.3440;33.9404;
3100158701997999;35.9046;-6.3684;34.2088;
3100158711997999;35.8680;-6.4172;34.1478;
3100158721997999;35.8802;-6.4782;34.1356;
3100158731997999;35.9168;-6.5026;34.0380;
3100158741997999;36.0022;-6.4782;33.9892;
3100158751997999;36.0266;-6.4904;33.9160;
3100158761997999;36.1120;-6.5026;33.7452;
3100158771997999;36.2950;-6.5026;33.5256;
3100158781997999;36.6976;-6.4904;33.0742;
3100158791997999;36.7708;-6.5514;33.0742;
3100158801997999;36.7708;-6.5392;33.1596;
3100158811997999;36.7952;-6.5758;33.0742;
3100158821997999;36.7342;-6.6490;33.1718;
3100158831997999;36.6122;-6.7344;33.2938;
3100158841997999;36.5756;-6.7710;33.2206;
3100158851997999;36.6122;-6.7588;33.2450;
3100158861997999;36.7464;-6.7832;33.1108;
3100158871997999;36.9904;-6.7466;32.8790;
3100158881997999;37.1124;-6.8076;32.6594;
3100158891997999;37.2832;-6.8442;32.5374;
3100158901997999;37.3320;-6.8686;32.3788;
3100158911997999;37.2710;-6.8686;32.4032;
3100158921997999;37.3564;-6.8442;32.4032;
3100158931997999;37.2832;-6.9418;32.3056;
3100158941997999;37.2100;-6.9662;32.3056;
3100158951997999;36.9050;-7.0638;32.4886;
3100158961997999;36.8318;-7.0760;32.4764;
3100158971997999;36.8196;-7.0882;32.4276;
3100158981997999;36.8196;-7.0882;32.4398;
3100158991997999;37.1490;-7.0516;32.0738;
3100159001997999;37.1002;-7.1492;31.9640;
3100159011997999;37.0880;-7.1248;31.9640;
3100159021997999;37.1734;-7.1614;31.8542;
3100159031997999;37.2588;-7.1126;31.7444;
3100159041997999;37.2466;-7.1248;31.7444;
3100159051997999;37.1002;-7.1004;31.7688;
