Sensor: mmc5603x Magnetometer Non-wakeup
Vendor: memsic
TimestampMag [ns]; MagX [uT]; MagY [uT]; MagZ [uT]
910035160692693;37.5516;0.4758;28.8530;
910035170692693;37.5516;0.4758;28.8530;
910035182100089;37.7712;0.4636;28.5968;
910035192100089;37.9054;0.4880;28.4382;
910035202100089;38.0152;0.5368;28.3528;
910035212100089;38.1372;0.5734;28.2918;
910035222100089;38.0152;0.5612;28.2796;
910035232100089;37.8200;0.5490;28.4626;
910035242100089;37.7834;0.5856;28.4870;
910035252100089;37.7102;0.5978;28.5602;
910035262100089;37.7102;0.6100;28.5114;
910035272100089;37.7102;0.6222;28.5114;
910035282100089;37.7102;0.5978;28.4260;
910035292100089;37.7590;0.5856;28.2918;
910035302100089;37.8810;0.5734;28.2430;
910035312100089;38.0396;0.5612;28.0722;
910035322100089;38.1860;0.5368;27.9502;
910035332100089;38.2470;0.5124;27.7306;
910035342100089;38.1982;0.5002;27.7184;
910035352100089;38.1372;0.4636;27.7062;
910035362100089;38.0152;0.4758;27.9136;
910035372100089;37.8078;0.4636;28.0112;
910035382100089;37.7834;0.4636;28.0478;
910035392100089;37.8078;0.5002;28.0844;
910035402100089;37.7346;0.4636;28.1332;
910035412100089;37.7102;0.4514;28.2064;
910035422100089;37.7590;0.4880;28.2796;
910035432100089;37.7956;0.5002;28.2308;
910035442100089;37.9176;0.4758;28.1088;
910035452100089;38.0030;0.4270;28.2308;
910035462100089;38.0762;0.4514;28.1698;
910035472100089;38.0030;0.4392;28.0844;
910035482100089;38.0640;0.4392;27.9868;
910035492100089;38.2348;0.4758;27.9014;
910035502100089;38.2470;0.4270;27.8770;
910035512100089;38.1860;0.3660;27.9136;
910035522100089;38.1738;0.3416;27.8282;
910035532100089;38.2348;0.3660;27.6330;
910035542100089;38.1738;0.3172;27.6208;
910035552100089;38.2958;0.2806;27.5842;
910035562100089;38.1738;0.2440;27.7794;
910035572100089;38.0152;0.1952;27.9014;
910035582100089;38.0518;0.1708;27.8160;
910035592100089;38.2104;0.1708;27.7062;
910035602100089;38.2104;0.1220;27.8160;
910035612100089;38.1982;-0.0122;27.8892;
910035622100089;38.2714;-0.0610;27.9014;
910035632100089;38.2836;-0.1708;27.9258;
910035642100089;38.4056;-0.2440;27.7428;
910035652100089;38.5032;-0.3294;27.6696;
910035662100089;38.5032;-0.4514;27.6574;
910035672100089;38.4056;-0.6222;27.7672;
910035682100089;38.3934;-0.7442;27.8038;
910035692100089;38.3568;-0.8174;27.8526;
910035702100089;38.1494;-0.9394;28.0478;
910035712100089;38.1250;-1.0126;28.1698;
910035722100089;38.0274;-1.1468;28.2430;
910035732100089;38.1372;-1.2688;28.1210;
910035742100089;38.1372;-1.3908;28.1698;
910035752100089;38.0762;-1.4762;28.3162;
910035762100089;38.0396;-1.6104;28.3162;
910035772100089;38.0396;-1.7080;28.2796;
910035782100089;38.2470;-1.8056;28.0600;
910035792100089;38.2470;-1.9276;27.8526;
910035802100089;38.2226;-2.0496;27.8770;
910035812100089;37.9786;-2.1594;28.1820;
910035822100089;37.8078;-2.2570;28.3528;
910035832100089;37.8322;-2.3302;28.2430;
910035842100089;37.8322;-2.3424;28.2308;
910035852100089;37.9420;-2.3790;28.1210;
910035862100089;37.9176;-2.4644;28.0844;
910035872100089;37.9298;-2.5376;28.1698;
910035882100089;38.0640;-2.5864;27.9502;
910035892100089;38.3080;-2.6596;27.5720;
910035902100089;38.5398;-2.7328;27.3036;
910035912100089;38.6862;-2.8060;27.1206;
910035922100089;38.7960;-2.8914;26.9376;
910035932100089;38.7472;-3.0256;26.9254;
910035942100089;38.7960;-3.0988;26.8644;
910035952100089;38.7838;-3.1720;26.7912;
910035962100089;38.8448;-3.2940;26.6814;
910035972100089;38.7716;-3.3794;26.8278;
910035982100089;38.6618;-3.4770;26.9254;
910035992100089;38.4178;-3.5990;27.1206;
910036002100089;38.2592;-3.6478;27.2182;
910036012100089;38.1250;-3.7820;27.4012;
910036022100089;37.8810;-3.8918;27.6086;
910036032100089;37.7590;-3.9650;27.7550;
910036042100089;37.4784;-4.0504;28.0966;
910036052100089;37.3686;-4.1724;28.0234;
910036062100089;37.3198;-4.2700;27.8892;
910036072100089;37.4418;-4.3310;27.7916;
910036082100089;37.4296;-4.5140;27.7306;
910036092100089;37.2222;-4.5872;27.8282;
910036102100089;37.2588;-4.6848;27.7428;
910036112100089;37.2466;-4.8434;27.7062;
910036122100089;37.2588;-4.9532;27.6452;
910036132100089;37.3198;-5.0020;27.6452;
910036142100089;37.2222;-5.1484;27.7672;
910036152100089;37.1246;-5.3070;27.8282;
910036162100089;37.1002;-5.3924;27.9014;
910036172100089;37.2344;-5.5022;27.8038;
910036182100089;37.1368;-5.6364;27.8770;
910036192100089;37.1368;-5.7462;27.9014;
910036202100089;37.1368;-5.8560;27.9380;
910036212100089;36.9172;-6.0146;28.1698;
910036222100089;36.8806;-6.0878;28.1454;
910036232100089;36.8562;-6.1488;28.1088;
910036242100089;36.7220;-6.2342;28.1088;
910036252100089;36.6244;-6.3196;28.0112;
910036262100089;36.7342;-6.4050;27.8648;
910036272100089;36.7464;-6.4782;27.6818;
910036282100089;36.8684;-6.4904;27.4256;
910036292100089;37.0270;-6.5392;27.1328;
910036302100089;37.0880;-6.5270;27.0840;
910036312100089;37.1978;-6.5392;26.9376;
910036322100089;37.3320;-6.5758;26.9864;
910036332100089;37.3320;-6.6368;26.9376;
910036342100089;37.3320;-6.7100;26.9010;
910036352100089;37.3076;-6.7344;26.8888;
910036362100089;37.2710;-6.7832;26.9986;
910036372100089;37.2344;-6.8076;27.0962;
910036382100089;37.3076;-6.8564;26.9498;
910036392100089;37.2466;-6.8930;26.9864;
910036402100089;37.1734;-6.9662;26.8644;
910036412100089;37.2588;-7.0150;26.7180;
910036422100089;37.2466;-7.0272;26.7302;
910036432100089;37.2100;-7.0272;26.6692;
910036442100089;37.2222;-7.0882;26.4252;
910036452100089;37.0392;-7.1370;26.4740;
910036462100089;36.7586;-7.2712;26.6326;
910036472100089;36.5024;-7.3566;26.7546;
910036482100089;36.3194;-7.4176;26.8522;
910036492100089;36.1242;-7.4298;27.0962;
910036502100089;35.8314;-7.4542;27.1328;
910036512100089;35.8070;-7.4908;27.1816;
910036522100089;35.8070;-7.4664;27.2304;
910036532100089;35.8314;-7.5274;27.2060;
910036542100089;35.9534;-7.4786;27.0840;
910036552100089;36.1364;-7.4542;26.8522;
910036562100089;36.2706;-7.4664;26.7058;
910036572100089;36.4292;-7.4176;26.5838;
910036582100089;36.7830;-7.4054;26.5594;
910036592100089;36.8318;-7.4054;26.6204;
910036602100089;36.7342;-7.3810;26.8644;
910036612100089;37.0270;-7.2956;26.6326;
910036622100089;37.2832;-7.2834;26.4984;
910036632100089;37.4784;-7.2224;26.4984;
910036642100089;37.7224;-7.0882;26.4496;
910036652100089;37.8444;-6.9906;26.3398;
910036662100089;37.8078;-6.8320;26.3154;
910036672100089;37.7834;-6.6978;26.4618;
910036682100089;37.7834;-6.5514;26.4984;
910036692100089;37.5882;-6.3196;26.7668;
910036702100089;37.4540;-6.0268;27.1206;
910036712100089;37.2222;-5.7096;27.4256;
910036722100089;37.0392;-5.3924;27.7306;
910036732100089;37.0148;-5.0752;27.9258;
910036742100089;37.1002;-4.6970;27.9380;
910036752100089;37.2832;-4.2822;27.7184;
910036762100089;37.4906;-3.8674;27.6086;
910036772100089;37.6370;-3.5014;27.5476;
910036782100089;37.7224;-3.0988;27.5476;
910036792100089;37.9054;-2.6718;27.5110;
910036802100089;37.9908;-2.2814;27.5110;
910036812100089;37.9908;-1.8178;27.6330;
910036822100089;37.8078;-1.4640;27.9502;
910036832100089;37.5638;-1.1102;28.4260;
910036842100089;37.3198;-0.7564;28.8652;
910036852100089;37.0148;-0.4148;29.4264;
910036862100089;36.9782;-0.0854;29.4996;
910036872100089;36.9660;0.1342;29.5606;
910036882100089;36.9172;0.3538;29.6460;
910036892100089;36.8928;0.5002;29.6948;
910036902100089;36.9660;0.6222;29.6948;
910036912100089;37.0514;0.8174;29.6094;
910036922100089;37.1490;0.9638;29.4264;
910036932100089;37.3808;1.1346;29.1214;
910036942100089;37.3442;1.2566;29.1824;
910036952100089;37.1978;1.3908;29.4020;
910036962100089;37.2344;1.5250;29.4874;
910036972100089;37.1734;1.6104;29.6216;
910036982100089;37.1734;1.7934;29.7192;
910036992100089;37.1856;1.9032;29.7802;
910037002100089;37.2344;1.9764;29.8412;
910037012100089;37.1734;2.0496;29.8412;
910037022100089;37.1856;2.1472;29.8900;
910037032100089;37.2344;2.2082;29.7680;
910037042100089;37.1246;2.2448;29.7070;
910037052100089;37.0880;2.3424;29.6948;
910037062100089;37.2100;2.4034;29.4874;
910037072100089;37.1124;2.4522;29.4264;
910037082100089;37.0148;2.5620;29.4264;
910037092100089;36.9904;2.6108;29.5362;
910037102100089;36.9294;2.6230;29.5972;
910037112100089;36.8806;2.6718;29.6704;
910037122100089;36.9416;2.7572;29.6094;
910037132100089;37.0270;2.7816;29.5484;
910037142100089;36.9538;2.7572;29.6216;
910037152100089;37.0880;2.7816;29.4874;
910037162100089;37.1734;2.7816;29.4264;
910037172100089;37.1612;2.7450;29.2922;
910037182100089;37.1124;2.7694;29.2556;
910037192100089;37.0514;2.7450;29.3410;
910037202100089;36.9782;2.7206;29.5118;
910037212100089;37.0026;2.7328;29.5362;
910037222100089;36.9660;2.7206;29.5728;
910037232100089;36.9660;2.6840;29.6460;
910037242100089;36.8928;2.6474;29.6216;
910037252100089;36.8562;2.6474;29.7558;
910037262100089;36.8928;2.6230;29.6094;
910037272100089;37.0270;2.6474;29.4020;
910037282100089;37.1612;2.6474;29.1946;
910037292100089;37.1856;2.6352;29.0482;
910037302100089;37.1002;2.6352;29.0238;
910037312100089;37.1368;2.6474;28.9628;
910037322100089;37.2100;2.6474;28.9140;
910037332100089;37.2100;2.6840;28.8042;
910037342100089;37.2100;2.7450;28.8652;
910037352100089;37.0270;2.8182;29.1580;
910037362100089;36.7586;2.8914;29.3532;
910037372100089;36.5146;2.9402;29.5606;
910037382100089;36.3926;3.0500;29.7924;
910037392100089;36.1608;3.1598;29.9022;
910037402100089;35.9290;3.2696;29.9510;
910037412100089;35.9168;3.4038;30.0120;
910037422100089;35.8192;3.5014;30.0120;
910037432100089;35.9412;3.6478;29.6948;
910037442100089;36.1852;3.8918;29.4142;
910037452100089;36.3804;4.1358;29.1458;
910037462100089;36.5512;4.3310;28.8408;
910037472100089;36.5878;4.5750;28.8164;
910037482100089;36.7586;4.8312;28.8286;
910037492100089;36.6488;5.0508;28.8164;
910037502100089;36.5756;5.3314;28.9994;
910037512100089;36.3926;5.4900;29.2312;
910037522100089;36.1608;5.6486;29.5362;
910037532100089;35.9046;5.8072;29.7680;
910037542100089;35.8436;5.9292;29.9022;
910037552100089;35.7582;6.0512;29.9876;
910037562100089;35.6118;6.1732;30.1340;
910037572100089;35.5874;6.2830;30.2560;
910037582100089;35.6606;6.3074;30.1828;
910037592100089;35.7338;6.3806;30.1340;
910037602100089;35.8070;6.3684;30.1828;
910037612100089;35.8436;6.3440;30.3292;
910037622100089;35.7826;6.3806;30.4146;
910037632100089;35.7460;6.3440;30.5732;
910037642100089;35.8070;6.2708;30.6220;
910037652100089;35.7826;6.1976;30.6830;
910037662100089;35.7826;6.1488;30.7928;
910037672100089;35.8558;6.1122;30.8050;
910037682100089;35.9046;6.0878;30.7196;
910037692100089;35.9778;6.0878;30.6220;
910037702100089;35.9778;6.0146;30.6952;
910037712100089;36.0632;5.9780;30.6464;
910037722100089;36.1486;5.9414;30.5244;
910037732100089;36.3438;5.9902;30.4146;
910037742100089;36.4292;6.0024;30.2804;
910037752100089;36.4780;5.9902;30.1950;
910037762100089;36.5512;6.0390;30.0974;
910037772100089;36.6854;6.0756;30.0242;
910037782100089;36.7098;6.1244;29.9266;
910037792100089;36.7830;6.2586;29.9144;
910037802100089;36.9660;6.3806;29.7802;
910037812100089;36.9172;6.4050;29.6948;
910037822100089;36.9172;6.4904;29.7924;
910037832100089;36.8806;6.5758;29.9388;
910037842100089;36.8562;6.6124;29.9754;
910037852100089;36.7708;6.6612;30.1096;
910037862100089;36.9416;6.7100;30.0730;
910037872100089;37.0270;6.6612;29.9388;
910037882100089;36.9416;6.6490;29.9388;
910037892100089;37.0026;6.6612;29.9754;
910037902100089;37.0636;6.6124;29.8656;
910037912100089;37.0270;6.5636;29.7924;
910037922100089;37.0636;6.5392;29.7924;
910037932100089;37.0880;6.5270;29.7070;
910037942100089;36.9660;6.5026;29.7070;
910037952100089;36.9538;6.4660;29.7802;
910037962100089;36.8684;6.4782;29.9632;
910037972100089;36.9172;6.4660;29.8046;
910037982100089;37.0026;6.5148;29.7558;
910037992100089;37.1490;6.5514;29.6826;
910038002100089;37.1124;6.5392;29.6704;
910038012100089;37.1856;6.5636;29.5850;
910038022100089;37.3808;6.5880;29.4386;
910038032100089;37.4906;6.6368;29.1092;
910038042100089;37.7102;6.6856;28.7432;
910038052100089;37.7346;6.7222;28.6822;
910038062100089;37.7834;6.7710;28.5724;
910038072100089;37.7590;6.8076;28.4504;
910038082100089;37.8810;6.8686;28.3406;
910038092100089;38.0518;6.9296;28.1332;
910038102100089;37.9786;6.9784;28.1210;
910038112100089;38.0396;7.0272;28.1454;
910038122100089;38.0640;7.0272;28.2064;
910038132100089;38.0518;7.0760;28.2430;
910038142100089;38.0518;7.0760;28.1454;
910038152100089;38.2226;7.1126;28.0112;
910038162100089;38.2470;7.1004;27.8038;
910038172100089;38.1616;7.1004;27.8526;
910038182100089;38.1250;7.1004;28.0356;
910038192100089;38.0274;7.0638;28.1332;
910038202100089;37.8566;7.0638;28.2430;
910038212100089;37.9420;7.0150;28.2552;
910038222100089;37.8566;6.9296;28.4016;
910038232100089;37.6004;6.8198;28.5846;
910038242100089;37.6614;6.6856;28.7066;
910038252100089;37.5272;6.4904;28.8408;
910038262100089;37.6370;6.2830;28.6334;
910038272100089;37.7102;6.1366;28.5846;
910038282100089;37.8566;5.9536;28.4504;
910038292100089;37.7956;5.7828;28.3650;
910038302100089;37.9054;5.6364;28.3162;
910038312100089;38.0884;5.4900;28.2430;
910038322100089;37.9664;5.3924;28.3284;
910038332100089;37.8932;5.2704;28.4260;
910038342100089;37.8932;5.2094;28.4992;
910038352100089;37.8322;5.1484;28.4870;
910038362100089;37.6614;5.0264;28.7432;
910038372100089;37.6614;4.9532;28.9506;
910038382100089;37.5272;4.9044;29.1214;
910038392100089;37.3930;4.8312;29.3166;
910038402100089;37.3808;4.7580;29.3166;
910038412100089;37.4418;4.7214;29.1824;
910038422100089;37.3564;4.6604;29.1458;
910038432100089;37.0392;4.5018;29.4874;
910038442100089;37.0148;4.4774;29.4630;
910038452100089;36.9050;4.4896;29.5972;
910038462100089;36.7952;4.4286;29.6216;
910038472100089;36.8196;4.4164;29.5972;
910038482100089;36.8440;4.4164;29.7314;
910038492100089;36.9538;4.4164;29.7680;
910038502100089;37.0880;4.4042;29.7436;
910038512100089;37.5516;4.4408;29.3044;
910038522100089;37.6980;4.4530;29.1336;
910038532100089;37.8566;4.3798;28.9018;
910038542100089;38.1494;4.3432;28.6456;
910038552100089;38.2470;4.3310;28.5480;
910038562100089;38.2714;4.2822;28.4504;
910038572100089;38.1616;4.2456;28.5724;
910038582100089;38.0030;4.2090;28.7188;
910038592100089;37.8566;4.1846;28.8896;
910038602100089;37.7468;4.0992;29.0848;
910038612100089;37.7224;4.0382;29.0726;
910038622100089;37.6126;4.0138;29.1946;
910038632100089;37.5882;4.0016;29.2312;
910038642100089;37.5394;3.9894;29.2068;
910038652100089;37.6126;3.9284;29.0726;
910038662100089;37.6980;3.8918;28.9750;
910038672100089;37.6858;3.8796;28.9750;
910038682100089;37.7102;3.8674;28.8530;
910038692100089;37.6248;3.8796;28.9750;
910038702100089;37.5272;3.8796;29.0970;
910038712100089;37.4784;3.8796;29.0970;
910038722100089;37.3320;3.9040;29.2922;
910038732100089;37.1734;3.9528;29.4874;
910038742100089;36.9904;3.9650;29.6826;
910038752100089;36.8196;4.0260;29.9388;
910038762100089;36.6244;4.1114;30.2194;
910038772100089;36.4170;4.1968;30.5366;
910038782100089;36.2950;4.2456;30.6830;
910038792100089;36.1364;4.3066;30.8782;
910038802100089;36.0388;4.3432;31.0734;
910038812100089;36.1486;4.4164;30.9758;
910038822100089;36.2096;4.5384;30.9392;
910038832100089;36.2828;4.5628;30.8294;
910038842100089;36.4048;4.6238;30.7074;
910038852100089;36.6366;4.6848;30.3902;
910038862100089;36.6976;4.7458;30.2560;
910038872100089;36.6122;4.8190;30.3780;
910038882100089;36.5756;4.8312;30.3780;
910038892100089;36.3682;4.8312;30.5610;
910038902100089;36.2218;4.8312;30.7684;
910038912100089;36.2096;4.8678;30.8782;
910038922100089;36.2218;4.8800;30.8538;
910038932100089;36.1974;4.8922;30.9148;
910038942100089;36.2462;4.9044;30.9148;
910038952100089;36.7830;4.9532;30.2804;
910038962100089;37.0514;5.0264;29.9632;
910038972100089;37.3198;5.0630;29.6948;
910038982100089;37.4784;5.1118;29.5240;
910038992100089;37.5394;5.2094;29.3532;
910039002100089;37.5638;5.2582;29.3288;
910039012100089;37.6004;5.2582;29.2190;
910039022100089;37.5638;5.3314;29.2312;
910039032100089;37.4174;5.3070;29.4630;
910039042100089;37.5882;5.3436;29.3044;
910039052100089;37.6736;5.4290;29.1824;
910039062100089;37.7102;5.4656;29.0970;
910039072100089;37.7102;5.4778;29.1702;
910039082100089;37.7590;5.4656;29.1214;
910039092100089;37.7102;5.5144;29.2678;
910039102100089;37.7712;5.5754;29.3044;
910039112100089;37.6492;5.6852;29.4752;
910039122100089;37.4784;5.7462;29.7558;
910039132100089;37.3686;5.8194;29.9388;
910039142100089;37.2344;5.9292;30.0730;
910039152100089;37.1978;6.0512;30.1706;
910039162100089;37.1246;6.2220;30.2804;
910039172100089;37.0880;6.3806;30.3414;
910039182100089;36.9782;6.4782;30.3536;
910039192100089;36.8806;6.5636;30.4146;
910039202100089;36.8806;6.6612;30.3292;
910039212100089;36.8196;6.7832;30.4024;
910039222100089;36.7830;6.8442;30.4878;
910039232100089;36.7464;6.8320;30.4146;
910039242100089;36.7586;6.8686;30.3780;
910039252100089;36.7830;6.8686;30.3536;
910039262100089;36.7952;6.8686;30.3292;
910039272100089;36.7708;6.9174;30.4512;
910039282100089;36.6122;6.9052;30.5732;
910039292100089;36.5390;6.8686;30.6586;
910039302100089;36.6488;6.8808;30.4878;
910039312100089;36.6976;6.9296;30.5366;
910039322100089;36.6854;6.9174;30.6098;
910039332100089;36.7342;6.9784;30.5000;
910039342100089;36.9050;7.0028;30.2926;
910039352100089;37.0392;7.0028;30.1340;
910039362100089;37.3442;7.0394;29.8168;
910039372100089;37.6004;7.0516;29.4996;
910039382100089;37.6492;7.0394;29.3898;
910039392100089;37.6736;7.0028;29.1946;
910039402100089;37.6858;6.9906;29.1824;
910039412100089;37.5150;6.9174;29.2922;
910039422100089;37.4296;6.8686;29.4752;
910039432100089;37.4174;6.8686;29.4264;
910039442100089;37.2710;6.8320;29.5606;
910039452100089;37.0636;6.7832;29.7680;
910039462100089;36.9172;6.7588;29.9510;
910039472100089;36.7342;6.7100;30.1462;
910039482100089;36.6000;6.6734;30.2316;
910039492100089;36.6244;6.6368;30.2560;
910039502100089;36.5756;6.5880;30.3536;
910039512100089;36.4780;6.4904;30.4878;
910039522100089;36.5878;6.4538;30.4634;
910039532100089;36.6610;6.4294;30.4146;
910039542100089;36.6854;6.3684;30.4024;
910039552100089;36.8440;6.3318;30.4024;
910039562100089;36.9660;6.2830;30.2804;
910039572100089;36.8562;6.1488;30.4390;
910039582100089;36.7708;6.1000;30.6098;
910039592100089;36.6366;6.0390;30.7806;
910039602100089;36.3194;5.9414;31.0734;
910039612100089;36.3316;5.8560;31.1344;
910039622100089;36.3926;5.7584;31.0856;
910039632100089;36.6122;5.7096;30.8416;
910039642100089;36.7220;5.6120;30.7196;
910039652100089;36.9294;5.6120;30.5122;
910039662100089;37.1002;5.5266;30.1706;
910039672100089;37.3076;5.4534;29.9144;
910039682100089;37.3808;5.3436;29.9144;
910039692100089;37.4540;5.1850;29.7680;
910039702100089;37.5150;5.0264;29.6948;
910039712100089;37.4174;4.8068;29.8168;
910039722100089;37.5272;4.5750;29.7070;
910039732100089;37.6736;4.3920;29.5362;
910039742100089;37.6980;4.1846;29.4264;
910039752100089;37.7956;3.9406;29.2922;
910039762100089;37.9664;3.7454;28.9872;
910039772100089;37.8810;3.5258;29.0482;
910039782100089;37.7956;3.3062;29.0970;
910039792100089;37.7834;3.1598;29.0360;
910039802100089;37.5394;3.0256;29.2190;
910039812100089;37.3808;2.8182;29.3044;
910039822100089;37.3198;2.6352;29.5118;
910039832100089;37.2222;2.4644;29.6826;
910039842100089;37.0758;2.3180;29.9144;
910039852100089;37.0148;2.2204;29.9266;
910039862100089;36.9782;2.1106;29.9144;
910039872100089;36.8196;1.9398;30.1340;
910039882100089;36.7220;1.7812;30.2072;
910039892100089;36.6976;1.6592;30.3048;
910039902100089;36.6244;1.5616;30.3292;
910039912100089;36.4414;1.4762;30.4634;
910039922100089;36.4048;1.3786;30.5122;
910039932100089;36.3682;1.3054;30.5976;
910039942100089;36.1608;1.2078;30.8538;
910039952100089;36.0754;1.1468;30.9026;
910039962100089;36.1120;1.1468;30.9392;
910039972100089;36.0144;1.1102;31.0734;
910039982100089;35.9656;1.0858;31.1222;
910039992100089;36.0510;1.0980;30.9636;
910040002100089;36.0998;1.1102;30.8660;
910040012100089;36.1364;1.1346;30.8294;
910040022100089;36.2218;1.1590;30.7562;
910040032100089;36.3438;1.1956;30.5488;
910040042100089;36.4048;1.2322;30.4146;
910040052100089;36.5268;1.2688;30.2682;
910040062100089;36.6488;1.2444;30.0974;
910040072100089;36.7342;1.1956;30.0364;
910040082100089;36.8440;1.1712;29.7924;
910040092100089;36.8562;1.1834;29.6948;
910040102100089;37.0392;1.2322;29.4264;
910040112100089;37.0636;1.2810;29.4386;
910040122100089;37.1246;1.2932;29.4874;
910040132100089;37.1368;1.3542;29.4142;
910040142100089;37.0880;1.4396;29.4386;
910040152100089;37.0514;1.5616;29.4996;
910040162100089;37.0392;1.6836;29.5484;
910040172100089;37.1246;1.7934;29.4874;
910040182100089;36.9416;1.9154;29.8290;
910040192100089;36.6976;1.9642;30.0120;
910040202100089;36.5146;2.0252;30.1706;
910040212100089;36.3316;2.0984;30.4146;
910040222100089;36.3560;2.1960;30.4024;
910040232100089;36.4292;2.3302;30.4146;
910040242100089;36.5268;2.4766;30.4268;
910040252100089;36.5146;2.5864;30.5122;
910040262100089;36.6976;2.6840;30.2316;
910040272100089;36.8074;2.8914;30.1462;
910040282100089;36.8928;3.0256;30.0852;
910040292100089;37.0636;3.2208;29.8900;
910040302100089;37.0148;3.3794;29.9876;
910040312100089;36.8928;3.4770;29.9754;
910040322100089;36.7464;3.5502;30.1096;
910040332100089;36.7098;3.7210;30.1950;
910040342100089;36.6976;3.9162;30.2438;
910040352100089;36.7464;4.0504;30.2682;
910040362100089;36.7586;4.2090;30.2682;
910040372100089;36.8440;4.3920;30.1584;
910040382100089;37.0880;4.5506;29.9388;
910040392100089;37.2710;4.7702;29.7802;
910040402100089;37.3076;5.0020;29.7314;
910040412100089;37.4662;5.1728;29.4752;
910040422100089;37.5150;5.3314;29.3044;
910040432100089;37.6614;5.5144;29.0604;
910040442100089;37.7346;5.7096;28.9506;
910040452100089;37.7224;5.8682;28.9506;
910040462100089;37.6004;6.0634;28.9628;
910040472100089;37.5760;6.2586;28.9628;
910040482100089;37.7468;6.3806;28.8042;
910040492100089;37.6980;6.5514;28.8164;
910040502100089;37.7102;6.6734;28.9140;
910040512100089;37.6492;6.8564;29.0848;
910040522100089;37.5272;6.9784;29.2312;
910040532100089;37.4662;7.1126;29.4142;
910040542100089;37.3930;7.2102;29.4630;
910040552100089;37.3076;7.3322;29.6460;
910040562100089;37.1734;7.4664;29.8656;
910040572100089;37.0148;7.6006;30.0974;
910040582100089;36.9050;7.7470;30.2438;
910040592100089;36.8806;7.8568;30.2194;
910040602100089;36.8684;8.0398;30.2316;
910040612100089;36.9172;8.1984;30.1340;
910040622100089;37.0270;8.3692;30.1584;
910040632100089;37.0270;8.4790;30.1218;
910040642100089;36.9538;8.6254;30.1340;
910040652100089;37.0392;8.7596;30.1340;
910040662100089;37.1002;8.8572;30.0120;
910040672100089;37.1978;8.9670;29.9388;
910040682100089;37.3320;9.0646;29.8412;
910040692100089;37.2710;9.1256;29.8046;
910040702100089;37.1856;9.2232;29.8534;
910040712100089;37.0514;9.3452;29.9998;
910040722100089;36.9782;9.4184;30.1950;
910040732100089;36.8318;9.5282;30.2682;
910040742100089;36.7708;9.6624;30.3902;
910040752100089;36.6122;9.7844;30.5610;
910040762100089;36.5878;9.8820;30.6098;
910040772100089;36.6488;10.0406;30.6464;
910040782100089;36.7098;10.1260;30.5366;
910040792100089;36.7586;10.1992;30.4878;
910040802100089;36.9660;10.3212;30.2438;
910040812100089;37.0636;10.3822;30.0730;
910040822100089;37.0636;10.4676;30.0364;
910040832100089;37.1734;10.5286;29.9510;
910040842100089;37.1978;10.5774;29.8290;
910040852100089;36.9538;10.6018;30.0486;
910040862100089;36.7098;10.6750;30.3292;
910040872100089;36.6732;10.7482;30.3902;
910040882100089;36.4414;10.7848;30.5000;
910040892100089;36.3804;10.8580;30.5488;
910040902100089;36.3804;10.9190;30.5854;
910040912100089;36.3682;10.9922;30.4390;
910040922100089;36.4170;11.1020;30.4268;
910040932100089;36.7586;11.2118;30.0120;
910040942100089;37.0026;11.2850;29.7558;
910040952100089;37.2344;11.3460;29.4386;
910040962100089;37.4540;11.4070;29.2068;
910040972100089;37.6492;11.4436;29.0116;
910040982100089;37.9420;11.4680;28.6334;
910040992100089;38.1982;11.5046;28.4260;
910041002100089;38.3812;11.5290;28.1088;
910041012100089;38.4422;11.5046;28.0478;
910041022100089;38.6374;11.4680;27.8038;
910041032100089;38.7350;11.4924;27.6330;
910041042100089;38.8570;11.4558;27.5476;
910041052100089;38.8082;11.4314;27.6452;
910041062100089;38.6496;11.3826;27.7550;
910041072100089;38.6862;11.3338;27.6818;
910041082100089;38.7838;11.2362;27.6208;
910041092100089;38.9546;11.1996;27.3036;
910041102100089;39.0766;11.1508;27.1694;
910041112100089;39.1986;11.0654;26.9986;
910041122100089;39.2230;10.9922;26.8522;
910041132100089;39.2718;10.8580;26.7546;
910041142100089;39.2474;10.7848;26.7790;
910041152100089;39.1620;10.7116;26.9254;
910041162100089;39.0156;10.6262;27.0962;
910041172100089;38.8570;10.5164;27.4134;
910041182100089;38.6252;10.4188;27.7428;
910041192100089;38.4300;10.2968;28.0356;
910041202100089;38.3324;10.1870;28.2552;
910041212100089;38.2592;10.1016;28.3406;
910041222100089;38.2470;9.9674;28.4260;
910041232100089;38.1860;9.7966;28.5358;
910041242100089;38.1616;9.6258;28.5236;
910041252100089;38.0640;9.4428;28.7310;
910041262100089;37.9176;9.1988;28.9262;
910041272100089;37.7346;8.9792;29.1580;
910041282100089;37.7102;8.7230;29.2190;
910041292100089;37.6980;8.4424;29.3410;
910041302100089;37.7224;8.1496;29.3654;
910041312100089;37.7956;7.8446;29.2312;
910041322100089;37.8566;7.5152;29.2434;
910041332100089;37.9664;7.1858;29.0970;
910041342100089;38.1250;6.9052;28.8774;
910041352100089;38.3324;6.6246;28.7554;
910041362100089;38.4300;6.3196;28.6334;
910041372100089;38.5520;6.0634;28.4260;
910041382100089;38.6130;5.8194;28.3284;
910041392100089;38.4666;5.5876;28.5114;
910041402100089;38.2470;5.4534;28.6822;
910041412100089;38.1250;5.2582;28.7920;
910041422100089;38.0030;5.0874;28.8164;
910041432100089;37.8688;4.9288;28.8164;
910041442100089;37.9420;4.8312;28.7310;
910041452100089;37.8078;4.7702;28.8408;
910041462100089;37.6980;4.6726;28.9628;
910041472100089;37.6248;4.6116;29.0238;
910041482100089;37.5882;4.5384;29.1092;
910041492100089;37.4540;4.5506;29.3166;
910041502100089;37.4540;4.5506;29.4752;
910041512100089;37.3564;4.5506;29.6704;
910041522100089;37.0758;4.5384;30.0974;
910041532100089;36.9294;4.5018;30.2926;
910041542100089;36.8928;4.5140;30.4146;
910041552100089;36.8806;4.5262;30.5366;
910041562100089;36.7464;4.5018;30.7806;
910041572100089;36.7830;4.4530;30.7196;
910041582100089;36.7464;4.4530;30.7440;
910041592100089;36.7464;4.4530;30.6830;
910041602100089;36.8196;4.4774;30.5732;
910041612100089;36.8806;4.5140;30.6220;
910041622100089;36.8928;4.5506;30.6952;
910041632100089;36.8440;4.5384;30.6708;
910041642100089;36.9904;4.5750;30.5244;
910041652100089;36.9294;4.6482;30.6098;
910041662100089;36.9660;4.6970;30.5122;
910041672100089;37.1124;4.7458;30.4146;
910041682100089;37.0880;4.7824;30.3048;
910041692100089;37.1002;4.7946;30.2438;
910041702100089;37.1978;4.7702;30.0364;
910041712100089;37.3198;4.7946;29.9754;
910041722100089;37.5638;4.7824;29.6094;
910041732100089;37.8810;4.7702;29.2312;
910041742100089;38.0518;4.7092;29.0604;
910041752100089;38.0762;4.6482;29.0604;
910041762100089;38.2348;4.5384;28.9384;
910041772100089;38.4544;4.4286;28.7188;
910041782100089;38.5398;4.3310;28.6822;
910041792100089;38.6008;4.2212;28.5724;
910041802100089;38.4666;4.0870;28.7310;
910041812100089;38.2226;3.8796;28.9750;
910041822100089;38.1128;3.8064;29.1946;
910041832100089;38.0640;3.6600;29.2068;
910041842100089;37.7102;3.5502;29.5606;
910041852100089;37.4052;3.4770;29.8900;
910041862100089;37.2832;3.3550;29.9022;
910041872100089;37.1856;3.2208;29.9510;
910041882100089;37.1368;3.1232;29.9876;
910041892100089;37.0880;3.0622;30.0242;
910041902100089;36.9172;2.9402;30.0974;
910041912100089;36.8684;2.8670;30.1340;
910041922100089;37.1368;2.7938;29.8656;
910041932100089;37.3686;2.7328;29.5728;
910041942100089;37.3442;2.6962;29.5240;
910041952100089;37.2710;2.6474;29.7314;
910041962100089;37.1612;2.6352;29.7924;
910041972100089;37.1246;2.5864;29.8046;
910041982100089;37.2832;2.5010;29.5850;
910041992100089;37.3442;2.4522;29.4508;
910042002100089;37.3320;2.3790;29.4752;
910042012100089;37.2588;2.3302;29.4874;
910042022100089;37.4052;2.2814;29.3776;
910042032100089;37.4662;2.2326;29.1702;
910042042100089;37.6004;2.1838;29.0238;
910042052100089;37.6492;2.0984;28.9628;
910042062100089;37.5516;2.0984;29.0482;
910042072100089;37.4052;2.0008;29.0604;
910042082100089;37.2954;1.9642;29.0360;
910042092100089;37.3442;1.8544;28.9506;
910042102100089;37.2466;1.7812;29.0726;
910042112100089;37.2100;1.7690;29.1580;
910042122100089;37.1368;1.7568;29.1824;
910042132100089;37.2222;1.7690;29.1336;
910042142100089;37.1856;1.7202;29.1214;
910042152100089;37.3198;1.7690;29.1580;
910042162100089;37.2222;1.8056;29.4020;
910042172100089;36.9172;1.9154;29.7558;
910042182100089;36.7098;2.0252;30.0120;
910042192100089;36.5024;2.0984;30.2072;
910042202100089;36.3316;2.1472;30.5122;
910042212100089;36.0998;2.2326;30.7318;
910042222100089;36.0754;2.3424;30.8660;
910042232100089;35.8070;2.4156;31.2076;
910042242100089;35.6118;2.4888;31.4150;
910042252100089;35.5142;2.4644;31.5980;
910042262100089;35.3922;2.4400;31.7932;
910042272100089;35.3068;2.4156;31.9274;
910042282100089;35.2214;2.3668;32.0616;
910042292100089;35.1604;2.3180;32.1226;
910042302100089;34.9896;2.2326;32.2690;
910042312100089;34.9530;2.1716;32.2202;
910042322100089;35.0140;2.0862;32.1104;
910042332100089;35.0872;2.0618;31.9274;
910042342100089;35.1726;2.0496;31.7078;
910042352100089;35.3434;2.0618;31.4882;
910042362100089;35.4776;2.0862;31.2564;
910042372100089;35.5874;2.1228;31.1954;
910042382100089;35.7338;2.1716;30.9880;
910042392100089;35.7948;2.2082;30.9026;
910042402100089;35.8558;2.2448;30.8294;
910042412100089;35.8680;2.2814;30.8050;
910042422100089;35.9046;2.3302;30.6952;
910042432100089;35.9290;2.3424;30.5854;
910042442100089;35.8436;2.3668;30.5854;
910042452100089;35.9656;2.4034;30.2316;
910042462100089;36.0144;2.4278;30.0730;
910042472100089;36.0144;2.5010;30.0120;
910042482100089;36.0388;2.5376;29.9022;
910042492100089;36.0998;2.5620;29.7192;
910042502100089;36.0144;2.6230;29.7802;
910042512100089;35.8680;2.6352;29.8534;
910042522100089;35.9046;2.7328;29.7802;
910042532100089;35.7338;2.7450;29.9632;
910042542100089;35.6118;2.7694;29.9754;
910042552100089;35.5630;2.8060;29.9388;
910042562100089;35.3922;2.8426;29.9022;
910042572100089;35.2580;2.9036;30.0242;
910042582100089;35.1848;2.9280;30.0120;
910042592100089;35.1116;3.0134;29.9266;
910042602100089;34.9164;3.0500;29.9388;
910042612100089;34.6358;3.1232;29.9998;
910042622100089;34.5138;3.2330;30.0486;
910042632100089;34.5382;3.2696;29.8656;
910042642100089;34.5870;3.3794;29.7314;
910042652100089;34.5382;3.4038;29.4874;
910042662100089;34.4772;3.4526;29.3044;
910042672100089;34.4528;3.4770;29.1580;
910042682100089;34.5748;3.4892;28.8896;
910042692100089;34.6724;3.4526;28.6090;
910042702100089;34.6236;3.4282;28.4870;
910042712100089;34.4894;3.3794;28.4382;
910042722100089;34.3918;3.3428;28.4016;
910042732100089;34.2820;3.3916;28.4992;
910042742100089;34.1356;3.3794;28.5480;
910042752100089;34.1234;3.3794;28.5724;
910042762100089;34.0868;3.3672;28.5846;
910042772100089;34.0380;3.4404;28.6456;
910042782100089;34.0624;3.4770;28.6456;
910042792100089;34.0624;3.6112;28.7188;
910042802100089;34.1600;3.7332;28.6578;
910042812100089;34.2576;3.7942;28.4992;
910042822100089;34.4528;4.0138;28.3162;
910042832100089;34.2454;4.1968;28.5358;
910042842100089;34.3552;4.4408;28.3284;
910042852100089;34.5382;4.6482;28.0478;
910042862100089;34.6480;4.8800;27.8038;
910042872100089;34.9652;5.5510;27.3768;
910042882100089;35.0506;5.7706;27.1084;
910042892100089;35.2092;6.0390;26.7912;
910042902100089;35.3556;6.2220;26.4740;
910042912100089;35.7216;6.4904;25.8884;
910042922100089;35.6728;6.7588;25.7908;
910042932100089;35.6362;7.0272;25.6932;
910042942100089;35.5142;7.3200;25.6444;
910042952100089;35.3068;7.6250;25.6810;
910042962100089;35.0140;7.9178;25.8518;
910042972100089;34.7822;8.1984;25.9860;
910042982100089;34.5382;8.4912;26.1812;
910042992100089;34.3430;8.7352;26.2178;
910043002100089;34.1600;8.9792;26.3642;
910043012100089;33.9282;9.1500;26.5472;
910043022100089;33.8184;9.3452;26.6204;
910043032100089;33.8794;9.5404;26.5350;
910043042100089;34.0258;9.7356;26.4374;
910043052100089;34.0624;9.9064;26.4008;
910043062100089;34.1356;10.0528;26.2300;
910043072100089;34.1478;10.1504;26.2910;
910043082100089;34.1600;10.2846;26.2666;
910043092100089;34.1234;10.4066;26.3276;
910043102100089;34.2332;10.4920;26.2788;
910043112100089;34.2210;10.5896;26.3764;
910043122100089;34.1844;10.6506;26.4374;
910043132100089;34.2088;10.7482;26.4130;
910043142100089;34.1234;10.8214;26.6326;
910043152100089;34.2210;10.9434;26.6448;
910043162100089;34.3186;11.0044;26.6692;
910043172100089;34.5260;11.1142;26.5960;
910043182100089;34.4406;11.1996;26.7668;
910043192100089;34.3552;11.2484;27.0230;
910043202100089;34.3552;11.3094;27.1450;
910043212100089;34.4284;11.3582;27.2670;
910043222100089;34.5382;11.4192;27.3158;
910043232100089;34.4650;11.4558;27.5110;
910043242100089;34.5260;11.5656;27.5964;
910043252100089;34.5138;11.6022;27.7672;
910043262100089;34.5870;11.6266;27.8892;
910043272100089;34.5870;11.7242;27.9502;
910043282100089;34.5870;11.7852;28.0844;
910043292100089;34.5992;11.8218;28.2308;
910043302100089;34.6602;11.8828;28.3040;
910043312100089;34.7578;11.8584;28.3528;
910043322100089;34.8920;11.8340;28.3650;
910043332100089;34.9530;11.8340;28.4138;
910043342100089;35.0262;11.8584;28.4870;
910043352100089;35.2336;11.7852;28.4260;
910043362100089;35.4776;11.7486;28.3650;
910043372100089;35.7460;11.7120;28.2186;
910043382100089;35.9168;11.6144;28.2064;
910043392100089;36.0876;11.5900;28.0966;
910043402100089;36.1974;11.4802;28.1332;
910043412100089;36.3316;11.3338;28.1088;
910043422100089;36.5512;11.1752;27.9380;
910043432100089;36.6732;11.0776;27.9502;
910043442100089;36.6610;10.8702;28.0356;
910043452100089;36.4048;10.6506;28.4260;
910043462100089;36.1730;10.4432;28.8042;
910043472100089;35.9534;10.2480;29.2068;
910043482100089;35.6728;10.0772;29.6338;
910043492100089;35.4898;9.8698;29.9998;
910043502100089;35.2458;9.6502;30.4268;
910043512100089;35.0750;9.4428;30.6586;
910043522100089;35.0262;9.2964;30.8660;
910043532100089;35.1360;9.1744;30.8416;
910043542100089;35.2824;9.0524;30.6952;
910043552100089;35.4898;8.9304;30.5488;
910043562100089;35.6484;8.7718;30.3292;
910043572100089;35.6972;8.7230;30.2194;
910043582100089;35.8558;8.6376;29.9998;
910043592100089;35.9290;8.5644;29.8534;
910043602100089;35.9534;8.5400;29.7558;
910043612100089;35.9900;8.4912;29.5972;
910043622100089;35.7582;8.4424;29.8290;
910043632100089;35.5386;8.4058;30.0730;
910043642100089;35.3190;8.3936;30.3414;
910043652100089;35.2458;8.3326;30.4512;
910043662100089;35.0628;8.3204;30.6464;
910043672100089;34.8554;8.2716;30.8416;
910043682100089;34.8188;8.2472;30.9148;
910043692100089;34.6724;8.2228;31.0734;
910043702100089;34.7578;8.2838;30.9392;
910043712100089;34.7944;8.2472;30.9026;
910043722100089;34.7944;8.2228;30.7806;
910043732100089;34.7700;8.2960;30.7684;
910043742100089;34.8554;8.3570;30.5732;
910043752100089;35.1482;8.4302;30.3048;
910043762100089;35.0872;8.4302;30.3414;
910043772100089;35.0994;8.4302;30.2316;
910043782100089;35.0750;8.4180;30.2072;
910043792100089;35.0872;8.5034;30.0730;
910043802100089;35.2458;8.5766;29.7924;
910043812100089;35.3800;8.5888;29.5850;
910043822100089;35.4044;8.6010;29.5484;
910043832100089;35.3068;8.6376;29.4996;
910043842100089;35.3556;8.6986;29.3410;
910043852100089;35.2946;8.6986;29.4508;
910043862100089;35.3068;8.7108;29.4386;
910043872100089;35.2580;8.7352;29.4264;
910043882100089;35.1116;8.6864;29.6582;
910043892100089;35.0384;8.6620;29.6094;
910043902100089;34.9164;8.6254;29.6338;
910043912100089;34.8188;8.6498;29.7314;
910043922100089;34.7700;8.6132;29.7680;
910043932100089;34.8798;8.6620;29.5484;
910043942100089;34.9286;8.7230;29.3532;
910043952100089;34.8920;8.7230;29.3288;
910043962100089;34.8310;8.7840;29.3532;
910043972100089;34.7212;8.8206;29.5240;
910043982100089;34.6236;8.7840;29.6948;
910043992100089;34.5504;8.7474;29.7924;
910044002100089;34.4772;8.7230;29.9144;
910044012100089;34.4040;8.6986;30.0120;
910044022100089;34.4406;8.6742;30.1096;
910044032100089;34.5260;8.6498;30.0242;
910044042100089;34.6114;8.6376;29.9266;
910044052100089;34.5992;8.6864;29.8900;
910044062100089;34.6724;8.7230;29.7558;
910044072100089;34.7578;8.7840;29.5850;
910044082100089;34.7212;8.8450;29.4874;
910044092100089;34.8676;8.8938;29.2068;
910044102100089;34.8920;8.9182;29.0238;
910044112100089;34.9286;8.9426;29.0482;
910044122100089;34.9896;9.0036;28.9994;
910044132100089;35.1360;9.0402;28.9140;
910044142100089;35.1726;9.1500;28.8652;
910044152100089;35.3068;9.1988;28.8896;
910044162100089;35.4044;9.2720;28.8896;
910044172100089;35.3556;9.3208;29.1092;
910044182100089;35.3922;9.4306;29.2068;
910044192100089;35.4044;9.5160;29.2068;
910044202100089;35.5020;9.5404;29.1458;
910044212100089;35.5630;9.6136;29.1092;
910044222100089;35.6118;9.6746;29.0970;
910044232100089;35.5996;9.7356;29.1092;
910044242100089;35.8070;9.8088;28.9140;
910044252100089;35.9412;9.8698;28.8286;
910044262100089;36.0144;9.8942;28.7188;
910044272100089;36.2584;9.9186;28.4992;
910044282100089;36.2950;9.9308;28.5114;
910044292100089;36.3316;9.9430;28.4992;
910044302100089;36.4048;9.8942;28.5724;
910044312100089;36.3804;9.8698;28.5846;
910044322100089;36.1852;9.8332;28.8774;
910044332100089;36.0998;9.8088;29.1092;
910044342100089;35.9412;9.7600;29.3410;
910044352100089;35.7460;9.7112;29.6338;
910044362100089;35.6850;9.6868;29.7802;
910044372100089;35.6972;9.6746;29.8778;
910044382100089;35.5752;9.6136;30.0974;
910044392100089;35.6606;9.6380;30.1584;
910044402100089;35.7948;9.6014;30.0974;
910044412100089;35.8314;9.5648;29.9510;
910044422100089;36.0144;9.5648;29.8656;
910044432100089;36.1608;9.5648;29.7070;
910044442100089;36.4170;9.5892;29.3898;
910044452100089;36.6122;9.5282;29.2678;
910044462100089;36.9172;9.6014;28.9628;
910044472100089;37.1612;9.5404;28.7066;
910044482100089;37.3442;9.4916;28.4992;
910044492100089;37.4296;9.4794;28.5480;
910044502100089;37.5028;9.4672;28.5358;
910044512100089;37.6614;9.4428;28.4260;
910044522100089;37.5638;9.3452;28.5846;
910044532100089;37.4418;9.2842;28.7676;
910044542100089;37.3686;9.1988;28.8530;
910044552100089;37.1612;9.1378;29.1702;
910044562100089;36.9172;9.0646;29.5850;
910044572100089;36.7830;8.9792;29.7314;
910044582100089;36.7952;8.8938;29.7924;
910044592100089;36.6244;8.8084;30.0730;
910044602100089;36.5634;8.7840;30.1096;
910044612100089;36.6610;8.6864;30.0242;
910044622100089;36.6610;8.6254;30.0852;
910044632100089;36.7220;8.5278;30.0120;
910044642100089;36.9294;8.4546;29.7802;
910044652100089;37.0758;8.3692;29.6338;
910044662100089;37.0392;8.2350;29.6948;
910044672100089;37.0636;8.1374;29.6216;
910044682100089;37.2588;8.0154;29.5362;
910044692100089;37.3198;7.9422;29.3654;
910044702100089;37.3686;7.8080;29.3044;
910044712100089;37.3198;7.7470;29.3288;
910044722100089;37.2222;7.6860;29.4386;
910044732100089;37.1124;7.6250;29.5606;
910044742100089;36.9904;7.5762;29.6826;
910044752100089;36.9172;7.4664;29.8168;
910044762100089;36.6610;7.3688;30.0974;
910044772100089;36.3926;7.3566;30.5122;
910044782100089;36.3072;7.3322;30.6342;
910044792100089;36.1730;7.2224;30.7562;
910044802100089;36.1608;7.1370;30.7196;
910044812100089;36.0998;7.0272;30.7562;
910044822100089;36.1364;6.9662;30.6830;
910044832100089;36.1730;6.9052;30.6220;
910044842100089;36.1730;6.8442;30.5732;
910044852100089;36.2462;6.7222;30.4512;
910044862100089;36.1974;6.6368;30.4390;
910044872100089;36.2584;6.6002;30.4146;
910044882100089;36.2096;6.5148;30.5122;
910044892100089;36.2706;6.4294;30.4756;
910044902100089;36.2462;6.3440;30.5366;
910044912100089;36.1364;6.2586;30.5854;
910044922100089;36.1242;6.1976;30.6586;
910044932100089;36.1730;6.0878;30.5732;
910044942100089;36.3316;5.9780;30.3780;
910044952100089;36.4536;5.8316;30.2194;
910044962100089;36.6122;5.7462;30.0242;
910044972100089;36.8074;5.7462;29.7802;
910044982100089;36.8196;5.7096;29.7680;
910044992100089;37.0148;5.6730;29.5240;
910045002100089;37.1978;5.5876;29.2678;
910045012100089;37.2100;5.5998;29.2556;
910045022100089;37.3198;5.5510;29.2800;
910045032100089;37.4174;5.5754;29.2434;
910045042100089;37.4296;5.5266;29.2312;
910045052100089;37.4174;5.4778;29.2678;
910045062100089;37.5638;5.4290;29.0238;
910045072100089;37.6614;5.3680;28.9872;
910045082100089;37.6614;5.3070;28.9750;
910045092100089;37.6980;5.2338;28.8530;
910045102100089;37.5882;5.2094;28.9628;
910045112100089;37.4052;5.0752;29.0116;
910045122100089;37.4296;5.0264;28.9750;
910045132100089;37.5638;4.9410;28.8774;
910045142100089;37.6370;4.8800;28.7920;
910045152100089;37.6370;4.8190;28.8042;
910045162100089;37.7468;4.7580;28.6334;
910045172100089;37.8322;4.7458;28.4992;
910045182100089;37.9664;4.7092;28.3162;
910045192100089;38.1982;4.7336;28.0234;
910045202100089;38.4422;4.7214;27.7062;
910045212100089;38.5032;4.7214;27.4866;
910045222100089;38.6374;4.7336;27.3158;
910045232100089;38.7106;4.7946;27.1694;
910045242100089;38.6984;4.8312;27.1694;
910045252100089;38.7960;4.8312;27.1206;
910045262100089;38.7228;4.8678;27.2304;
910045272100089;38.6496;4.8800;27.3524;
910045282100089;38.3446;4.9654;27.6086;
910045292100089;38.0884;5.0264;27.9258;
910045302100089;37.8932;5.0874;28.2430;
910045312100089;37.7346;5.1118;28.4870;
910045322100089;37.5394;5.2338;28.6944;
910045332100089;37.3686;5.3436;28.8774;
910045342100089;37.3686;5.4046;28.8286;
910045352100089;37.2466;5.5144;29.0116;
910045362100089;37.2710;5.6364;29.1336;
910045372100089;37.2954;5.7706;29.0970;
910045382100089;37.2588;5.8804;29.0726;
910045392100089;37.2100;6.0390;29.0726;
910045402100089;37.1856;6.1610;29.2190;
910045412100089;37.3198;6.8320;29.2678;
910045422100089;37.2832;7.0394;29.2190;
910045432100089;37.2954;7.2468;29.1702;
910045442100089;37.1368;7.3688;29.2556;
910045452100089;37.0514;7.5274;29.3532;
910045462100089;37.0758;7.6738;29.3166;
910045472100089;37.2100;7.8202;29.1092;
910045482100089;37.3808;7.9422;28.8774;
910045492100089;37.5272;8.0276;28.7798;
910045502100089;37.6248;8.0764;28.7310;
910045512100089;37.6980;8.1008;28.6334;
910045522100089;37.9176;8.1252;28.4626;
910045532100089;38.0396;8.0764;28.3040;
910045542100089;38.0152;8.1008;28.3406;
910045552100089;37.9298;8.0154;28.4504;
910045562100089;37.9054;7.9056;28.4748;
910045572100089;37.9420;7.8324;28.5358;
910045582100089;37.9054;7.7592;28.5968;
910045592100089;37.7346;7.6860;28.8042;
910045602100089;37.5272;7.5640;28.9994;
910045612100089;37.4784;7.5152;29.1092;
910045622100089;37.5638;7.4054;29.0482;
910045632100089;37.5760;7.2834;28.9872;
910045642100089;37.4418;7.2102;29.1092;
910045652100089;37.2710;7.0760;29.2068;
910045662100089;37.1124;6.9540;29.3410;
910045672100089;37.1490;6.8686;29.2556;
910045682100089;37.1246;6.8442;29.2434;
910045692100089;37.0636;6.7588;29.3044;
910045702100089;36.9172;6.6856;29.4508;
910045712100089;36.7464;6.6612;29.6948;
910045722100089;36.7098;6.6612;29.8046;
910045732100089;36.6610;6.6612;29.8412;
910045742100089;36.5634;6.6856;29.9510;
910045752100089;36.4902;6.7466;30.0608;
910045762100089;36.4536;6.7588;30.1096;
910045772100089;36.4292;6.8198;30.1706;
910045782100089;36.5024;6.8930;30.0242;
910045792100089;36.5024;6.9784;29.9510;
910045802100089;36.6610;7.0638;29.6948;
910045812100089;36.6976;7.1248;29.5606;
910045822100089;36.8318;7.1858;29.4020;
910045832100089;36.8074;7.1980;29.3410;
910045842100089;36.6854;7.2346;29.4020;
910045852100089;36.5512;7.3078;29.4386;
910045862100089;36.2828;7.3078;29.7436;
910045872100089;36.2462;7.3810;29.7924;
910045882100089;36.0388;7.3932;29.9876;
910045892100089;35.9168;7.4542;30.0608;
910045902100089;35.9168;7.4908;29.9998;
910045912100089;35.9290;7.4786;29.9388;
910045922100089;36.0022;7.4664;29.7314;
910045932100089;36.0754;7.4786;29.5728;
910045942100089;36.2462;7.5396;29.2312;
910045952100089;36.3926;7.5274;29.0726;
910045962100089;36.5146;7.5030;28.7798;
910045972100089;36.6244;7.4908;28.5724;
910045982100089;36.4658;7.5396;28.7188;
910045992100089;36.3438;7.5884;28.8286;
910046002100089;36.2950;7.6006;28.9384;
910046012100089;36.0754;7.5762;29.1702;
910046022100089;35.8314;7.5152;29.4752;
910046032100089;35.5630;7.4298;29.7680;
910046042100089;35.2580;7.3932;30.1828;
910046052100089;35.2092;7.3810;30.3414;
910046062100089;35.5142;7.3078;29.8290;
910046072100089;35.8802;7.2834;29.4020;
910046082100089;36.1852;7.3078;28.9384;
910046092100089;36.5756;7.3078;28.4016;
910046102100089;36.9416;7.3200;27.8892;
910046112100089;37.2222;7.3322;27.4622;
910046122100089;37.5394;7.3810;27.0108;
910046132100089;37.7468;7.3810;26.7790;
910046142100089;37.6126;7.4054;26.9498;
910046152100089;37.5394;7.4420;26.9864;
910046162100089;37.4906;7.4542;27.0840;
910046172100089;37.4174;7.4786;27.1572;
910046182100089;37.3442;7.4908;27.2914;
910046192100089;37.3442;7.5396;27.2426;
910046202100089;37.4052;7.5030;27.1816;
910046212100089;37.3564;7.5152;27.2182;
910046222100089;37.3442;7.4908;27.2426;
910046232100089;37.2222;7.4298;27.4378;
910046242100089;37.1734;7.4054;27.5598;
910046252100089;37.2588;7.3932;27.5476;
910046262100089;37.3808;7.3932;27.4378;
910046272100089;37.4662;7.4176;27.3158;
910046282100089;37.4296;7.4298;27.4500;
910046292100089;37.3564;7.3932;27.4744;
910046302100089;37.3320;7.4420;27.6086;
910046312100089;37.3930;7.4908;27.6086;
910046322100089;37.4296;7.5152;27.5720;
910046332100089;37.3808;7.5274;27.6208;
910046342100089;37.2954;7.5518;27.7428;
910046352100089;37.1856;7.5518;28.0356;
910046362100089;37.2710;7.5884;27.9868;
910046372100089;37.4662;7.6738;27.8648;
910046382100089;37.6370;7.6616;27.6940;
910046392100089;37.7346;7.6738;27.5476;
910046402100089;37.6614;7.7226;27.6452;
910046412100089;37.6736;7.7592;27.6452;
910046422100089;37.7712;7.7348;27.4988;
910046432100089;37.8688;7.7348;27.2548;
910046442100089;37.8688;7.7470;27.2182;
910046452100089;37.8932;7.7592;27.2426;
910046462100089;37.7346;7.7958;27.4012;
910046472100089;37.7590;7.8202;27.4866;
910046482100089;37.9420;7.8202;27.2548;
910046492100089;37.9786;7.8690;27.3158;
910046502100089;37.9908;7.9422;27.4622;
910046512100089;37.9176;8.0154;27.6696;
910046522100089;37.9786;8.0642;27.6696;
910046532100089;37.8566;8.0642;27.7916;
910046542100089;37.8322;8.0520;27.8160;
910046552100089;37.7224;8.0642;27.9746;
910046562100089;37.5882;8.0764;28.2430;
910046572100089;37.4784;8.0520;28.3772;
910046582100089;37.3808;8.0642;28.4260;
910046592100089;37.3198;8.0520;28.4748;
910046602100089;37.0636;8.0398;28.8042;
910046612100089;36.9050;8.1008;28.9384;
910046622100089;36.9660;8.1984;28.9750;
910046632100089;36.9660;8.2960;28.9384;
910046642100089;36.8684;8.3570;28.9262;
910046652100089;36.8684;8.4180;28.9750;
910046662100089;36.6488;8.4912;29.1824;
910046672100089;36.5268;8.5156;29.3898;
910046682100089;36.6244;8.5278;29.1580;
910046692100089;36.6976;8.5522;28.9994;
910046702100089;36.6732;8.5034;29.0238;
910046712100089;36.5878;8.4790;29.0482;
910046722100089;36.5878;8.4180;29.0726;
910046732100089;36.5878;8.3936;28.9994;
910046742100089;36.6854;8.3448;28.8164;
910046752100089;36.9782;8.3936;28.4870;
910046762100089;36.9904;8.4424;28.4748;
910046772100089;36.9416;8.4180;28.5114;
910046782100089;36.9538;8.4668;28.4260;
910046792100089;37.0148;8.4668;28.3406;
910046802100089;37.1490;8.5400;28.2674;
910046812100089;37.1856;8.5522;28.1576;
910046822100089;37.1978;8.5888;28.1698;
910046832100089;36.8928;8.5766;28.4138;
910046842100089;36.6976;8.5644;28.5724;
910046852100089;36.6244;8.5766;28.7310;
910046862100089;36.5756;8.5522;28.8164;
910046872100089;36.5146;8.5644;28.8774;
910046882100089;36.3804;8.4790;28.9506;
910046892100089;36.2828;8.4180;29.0970;
910046902100089;36.1852;8.3082;29.2068;
910046912100089;36.3438;8.2228;29.1214;
910046922100089;36.5390;8.1618;28.9384;
910046932100089;36.7586;8.0642;28.7188;
910046942100089;36.8196;7.9666;28.6212;
910046952100089;36.9172;7.8446;28.5602;
910046962100089;37.0880;7.8080;28.4382;
910046972100089;37.2222;7.8324;28.3162;
910046982100089;37.4296;7.8324;28.0966;
910046992100089;37.4784;7.8324;27.9136;
910047002100089;37.5028;7.7958;27.9258;
910047012100089;37.5028;7.8324;27.8526;
910047022100089;37.6126;7.8690;27.6330;
910047032100089;37.6004;7.9422;27.5232;
910047042100089;37.5516;7.9788;27.4500;
910047052100089;37.4540;7.9910;27.4256;
910047062100089;37.2954;8.0276;27.4988;
910047072100089;37.1856;8.0154;27.6330;
910047082100089;37.1490;8.0398;27.6208;
910047092100089;36.9904;7.9910;27.7672;
910047102100089;36.9294;7.9788;27.8404;
910047112100089;37.1002;7.9666;27.6940;
910047122100089;37.1856;7.9544;27.6330;
910047132100089;37.4052;7.9300;27.5110;
910047142100089;37.6248;7.9544;27.3036;
910047152100089;37.8810;8.0032;27.1084;
910047162100089;38.0518;8.0276;26.9376;
910047172100089;38.3080;8.0886;26.7302;
910047182100089;38.4056;8.1374;26.7058;
910047192100089;38.3568;8.1984;26.7302;
910047202100089;38.3812;8.2472;26.6448;
910047212100089;38.4666;8.3204;26.5594;
910047222100089;38.6740;8.3936;26.4252;
910047232100089;38.7960;8.3936;26.3520;
910047242100089;38.8814;8.4790;26.3276;
910047252100089;38.9424;8.5278;26.2544;
910047262100089;39.0522;8.5766;26.0958;
910047272100089;39.1864;8.5644;26.0104;
910047282100089;39.2840;8.5888;25.9738;
910047292100089;39.3084;8.6254;26.0348;
910047302100089;39.2352;8.6254;26.1202;
910047312100089;39.1010;8.6132;26.2178;
910047322100089;38.9790;8.6010;26.4008;
910047332100089;38.9424;8.6254;26.4252;
910047342100089;38.8814;8.5522;26.6082;
910047352100089;38.8814;8.5400;26.7424;
910047362100089;38.7838;8.5400;26.8644;
910047372100089;38.7472;8.4668;26.8888;
910047382100089;38.7106;8.4546;26.9620;
910047392100089;38.6374;8.4790;27.0718;
910047402100089;38.6984;8.4302;27.0230;
910047412100089;38.6252;8.3326;27.1328;
910047422100089;38.5154;8.3692;27.1938;
910047432100089;38.4422;8.3692;27.2182;
910047442100089;38.4422;8.3448;27.2548;
910047452100089;38.3812;8.3936;27.3524;
910047462100089;38.2104;8.3814;27.5110;
910047472100089;38.0762;8.3936;27.6818;
910047482100089;37.7712;8.4302;28.0478;
910047492100089;37.3930;8.4302;28.4870;
910047502100089;37.2100;8.3814;28.8164;
910047512100089;36.9416;8.3204;29.0726;
910047522100089;36.8074;8.2716;29.2190;
910047532100089;36.8440;8.2350;29.2312;
910047542100089;36.8928;8.2106;29.1946;
910047552100089;36.9904;8.1862;29.1336;
910047562100089;37.1612;8.1618;28.8896;
910047572100089;37.5394;8.1984;28.5968;
910047582100089;37.6858;8.2472;28.4504;
910047592100089;37.9298;8.2594;28.3040;
910047602100089;38.0884;8.2350;28.1454;
910047612100089;38.1128;8.2350;28.0112;
910047622100089;38.1128;8.1984;28.0234;
910047632100089;38.1372;8.2350;28.0234;
910047642100089;38.1128;8.2350;28.0478;
910047652100089;38.1006;8.2594;28.0722;
910047662100089;38.1128;8.2350;28.0112;
910047672100089;38.0762;8.2838;27.9990;
910047682100089;38.0396;8.3692;28.1332;
910047692100089;37.8932;8.3936;28.3528;
910047702100089;37.9054;8.4424;28.3528;
910047712100089;37.8688;8.4912;28.4626;
910047722100089;37.9054;8.5278;28.5358;
910047732100089;37.9054;8.5400;28.5236;
910047742100089;38.0518;8.6254;28.3772;
910047752100089;38.1860;8.6620;28.2308;
910047762100089;38.2348;8.6498;28.1088;
910047772100089;38.2958;8.6864;28.0478;
910047782100089;38.3812;8.7108;27.9502;
910047792100089;38.5276;8.6620;27.6940;
910047802100089;38.5642;8.6986;27.5720;
910047812100089;38.4788;8.7230;27.6086;
910047822100089;38.3080;8.7352;27.7184;
910047832100089;38.2104;8.7718;27.9136;
910047842100089;38.1250;8.8206;27.9624;
910047852100089;38.0396;8.8694;28.0966;
910047862100089;37.8566;8.8694;28.3284;
910047872100089;37.8200;8.9670;28.3894;
910047882100089;37.7834;8.9670;28.5114;
910047892100089;37.8322;9.0036;28.3894;
910047902100089;37.9054;9.0036;28.3162;
910047912100089;37.8322;9.0402;28.2674;
910047922100089;37.7224;9.1378;28.3406;
910047932100089;37.6858;9.1988;28.3162;
910047942100089;37.5394;9.3330;28.3772;
910047952100089;37.2832;9.3818;28.5358;
910047962100089;37.0880;9.5160;28.5968;
910047972100089;36.7830;9.6258;28.9262;
910047982100089;36.4536;9.7234;29.2800;
910047992100089;36.2218;9.7966;29.4996;
910048002100089;36.1364;9.8698;29.5972;
910048012100089;35.9778;9.9308;29.7192;
910048022100089;36.1120;9.9796;29.5240;
910048032100089;36.0998;10.0284;29.4752;
910048042100089;36.1608;10.0650;29.3532;
910048052100089;36.2706;10.1138;29.0848;
910048062100089;36.4902;10.1626;28.7676;
910048072100089;36.6366;10.2114;28.5602;
910048082100089;36.6610;10.2480;28.4382;
910048092100089;36.7952;10.2846;28.2918;
910048102100089;36.7830;10.2968;28.3040;
910048112100089;36.8928;10.3700;28.1942;
910048122100089;36.8562;10.4310;28.2552;
910048132100089;36.8440;10.4676;28.2552;
910048142100089;36.7220;10.4798;28.3650;
910048152100089;36.7342;10.5530;28.2674;
910048162100089;36.9050;10.6018;28.1210;
910048172100089;36.9660;10.6628;27.9868;
910048182100089;37.0148;10.6994;27.9136;
910048192100089;36.9782;10.6628;27.9136;
910048202100089;37.1246;10.6262;27.6940;
910048212100089;37.1612;10.6262;27.7306;
910048222100089;37.0880;10.6506;27.8038;
910048232100089;37.0392;10.5896;27.8892;
910048242100089;36.9172;10.5042;27.9746;
910048252100089;36.8074;10.4066;28.1576;
910048262100089;36.6610;10.3456;28.2918;
910048272100089;36.5512;10.3334;28.5358;
910048282100089;36.4170;10.2724;28.7188;
910048292100089;36.2706;10.1504;28.8164;
910048302100089;36.3560;10.0894;28.7554;
910048312100089;36.3072;10.0040;28.8408;
910048322100089;36.1852;9.9430;29.0238;
910048332100089;36.1364;9.8942;29.0482;
910048342100089;36.1486;9.8088;29.0360;
910048352100089;36.2340;9.7478;28.9628;
910048362100089;36.3072;9.7234;28.9018;
910048372100089;36.4292;9.6990;28.8774;
910048382100089;36.5756;9.6380;28.7676;
910048392100089;36.7464;9.5770;28.5480;
910048402100089;37.0636;9.5770;28.2918;
910048412100089;37.3320;9.5282;28.0722;
910048422100089;37.5028;9.4672;27.9502;
910048432100089;37.6492;9.3818;27.7306;
910048442100089;37.7590;9.2964;27.6452;
910048452100089;37.9054;9.2232;27.4744;
910048462100089;37.9786;9.1378;27.4622;
910048472100089;37.9908;9.0524;27.5842;
910048482100089;37.8444;9.0036;27.8038;
910048492100089;37.8078;8.9548;27.9624;
910048502100089;37.7712;8.9304;28.0844;
910048512100089;37.7346;8.9182;28.3406;
910048522100089;37.6248;8.8938;28.5602;
910048532100089;37.5516;8.9060;28.7554;
910048542100089;37.4052;8.8816;28.8896;
910048552100089;37.3198;8.8816;29.1214;
910048562100089;37.2466;8.8328;29.2190;
910048572100089;37.1002;8.8084;29.4020;
910048582100089;37.0392;8.7718;29.5972;
910048592100089;36.9294;8.7352;29.6094;
910048602100089;36.8562;8.7352;29.6826;
910048612100089;36.9904;8.7474;29.5118;
910048622100089;37.1124;8.7596;29.3776;
910048632100089;37.1734;8.7474;29.2556;
910048642100089;37.1612;8.7840;29.1946;
910048652100089;37.2344;8.8328;29.0360;
910048662100089;37.2832;8.8938;28.9018;
910048672100089;37.3564;8.9548;28.8652;
910048682100089;37.5638;8.9792;28.6700;
910048692100089;37.1978;8.9548;29.0848;
910048702100089;37.1002;9.0280;29.1824;
910048712100089;37.1368;9.1134;29.1458;
910048722100089;37.3076;9.1744;29.0116;
910048732100089;37.2954;9.2110;29.0604;
910048742100089;37.3808;9.2720;28.9018;
910048752100089;37.5150;9.3452;28.7310;
910048762100089;37.4784;9.3940;28.7066;
910048772100089;37.8322;9.4672;28.3284;
910048782100089;37.9054;9.5282;28.2552;
910048792100089;37.7590;9.5892;28.4260;
910048802100089;37.5882;9.6868;28.5968;
910048812100089;37.4174;9.7600;28.7798;
910048822100089;37.1978;9.8576;29.0848;
910048832100089;36.9050;9.9308;29.4752;
910048842100089;36.6610;10.0162;29.8168;
910048852100089;36.3804;10.0894;30.0852;
910048862100089;36.1486;10.1016;30.3414;
910048872100089;36.0998;10.1382;30.3414;
910048882100089;36.0998;10.1260;30.3048;
910048892100089;36.0998;10.1138;30.2560;
910048902100089;36.0876;10.0894;30.2560;
910048912100089;36.0388;10.1138;30.1584;
910048922100089;36.0388;10.1260;30.1096;
910048932100089;36.0388;10.1382;30.0608;
910048942100089;36.1242;10.1504;29.9998;
910048952100089;36.1608;10.1748;29.9876;
910048962100089;36.1120;10.1626;30.0486;
910048972100089;36.0998;10.1626;30.0730;
910048982100089;36.1608;10.1382;29.9510;
910048992100089;36.1120;10.1260;30.0364;
910049002100089;36.1974;10.1626;29.8534;
910049012100089;36.1852;10.1382;29.8778;
910049022100089;36.1608;10.1138;29.8290;
910049032100089;36.1852;10.1016;29.7680;
910049042100089;36.2340;10.0650;29.6826;
910049052100089;36.2950;10.0772;29.6338;
910049062100089;36.1608;10.0406;29.7802;
910049072100089;36.1974;9.9674;29.8412;
910049082100089;35.9900;9.8698;30.1706;
910049092100089;35.8680;9.7966;30.2682;
910049102100089;35.7948;9.7844;30.3902;
910049112100089;35.6118;9.6990;30.5854;
910049122100089;35.4532;9.6624;30.7318;
910049132100089;35.3800;9.6136;30.8416;
910049142100089;35.2702;9.5404;30.9392;
910049152100089;35.2336;9.5160;31.0490;
910049162100089;35.2336;9.4306;31.0124;
910049172100089;35.2458;9.4184;31.0734;
910049182100089;35.1970;9.3574;31.1832;
910049192100089;35.1116;9.2598;31.2198;
910049202100089;35.1238;9.1988;31.2808;
910049212100089;35.1970;9.1622;31.2320;
910049222100089;35.4166;9.0890;31.0490;
910049232100089;35.5386;8.9792;30.8660;
910049242100089;35.7216;8.9670;30.6830;
910049252100089;36.0266;8.9426;30.3048;
910049262100089;36.3682;8.9060;29.9144;
910049272100089;36.6976;8.8938;29.5484;
910049282100089;37.0880;8.8572;29.1946;
910049292100089;37.2832;8.7962;28.9140;
910049302100089;37.4174;8.8206;28.7188;
910049312100089;37.6492;8.8450;28.4382;
910049322100089;37.9542;8.8206;28.0600;
910049332100089;38.0152;8.7474;28.0722;
910049342100089;37.9054;8.7108;28.1820;
910049352100089;37.9908;8.6864;28.2796;
910049362100089;37.8688;8.6254;28.4748;
910049372100089;37.7468;8.6132;28.6212;
910049382100089;37.6614;8.5522;28.8164;
910049392100089;37.4784;8.4546;28.9994;
910049402100089;37.1734;8.3936;29.4508;
910049412100089;36.8440;8.3448;29.8046;
910049422100089;36.7342;8.3448;29.8656;
910049432100089;36.5268;8.3326;30.0242;
910049442100089;36.3926;8.3326;29.9754;
910049452100089;36.3316;8.3204;30.0974;
910049462100089;36.3438;8.3082;30.0364;
910049472100089;36.2950;8.3326;30.0486;
910049482100089;36.2340;8.3570;30.1218;
910049492100089;36.4170;8.4058;29.9388;
910049502100089;36.5512;8.3814;29.8900;
910049512100089;36.6244;8.3814;29.8900;
910049522100089;36.6244;8.3326;29.9876;
910049532100089;36.7464;8.3448;29.8656;
910049542100089;36.7342;8.4058;29.8900;
910049552100089;36.8196;8.4424;29.7680;
910049562100089;37.0026;8.4546;29.4996;
910049572100089;37.1124;8.4790;29.2922;
910049582100089;37.1612;8.5400;29.1946;
910049592100089;37.3198;8.6010;28.8652;
910049602100089;37.4784;8.6986;28.5480;
910049612100089;37.6004;8.7596;28.2918;
910049622100089;37.6736;8.7596;28.2186;
910049632100089;37.6736;8.8084;28.2186;
910049642100089;37.6004;8.8084;28.2674;
910049652100089;37.4906;8.8084;28.4016;
910049662100089;37.3198;8.8328;28.5480;
910049672100089;37.0148;8.8328;28.7798;
910049682100089;36.7586;8.8328;29.0970;
910049692100089;36.4048;8.8328;29.3898;
910049702100089;36.0998;8.9060;29.5728;
910049712100089;35.8680;8.9548;29.7192;
910049722100089;35.6362;9.0280;29.8168;
910049732100089;35.5508;9.1012;29.7680;
910049742100089;35.5630;9.1866;29.6216;
910049752100089;35.5996;9.2476;29.4264;
910049762100089;35.7216;9.3330;29.0970;
910049772100089;35.8436;9.4306;28.8408;
910049782100089;36.0632;9.4916;28.5602;
910049792100089;36.2828;9.5648;28.1820;
910049802100089;36.5634;9.6136;27.8404;
910049812100089;36.5634;9.6502;27.7428;
910049822100089;36.4536;9.6624;27.8648;
910049832100089;36.5878;9.6624;27.7794;
910049842100089;36.6366;9.6258;27.6330;
910049852100089;36.6854;9.5770;27.6330;
910049862100089;36.6244;9.5038;27.6574;
910049872100089;36.6732;9.3940;27.6818;
910049882100089;36.6000;9.2720;27.8038;
910049892100089;36.6488;9.1744;27.8038;
910049902100089;36.7952;9.0524;27.6330;
910049912100089;36.6244;8.9304;27.8404;
910049922100089;36.4780;8.8206;28.1698;
910049932100089;36.5512;8.6742;28.1820;
910049942100089;36.3194;8.4790;28.5602;
910049952100089;36.3072;8.3570;28.6822;
910049962100089;36.3316;8.2594;28.7310;
910049972100089;36.2828;8.1130;28.7676;
910049982100089;36.2706;7.9910;28.8530;
910049992100089;36.1852;7.8568;28.9872;
910050002100089;36.2096;7.7226;29.1214;
910050012100089;36.0510;7.6128;29.3532;
910050022100089;36.3682;7.6006;28.9506;
910050032100089;36.3072;7.4542;28.9994;
910050042100089;36.2584;7.3078;29.0604;
910050052100089;36.3926;7.2224;29.1214;
910050062100089;36.3804;7.1614;29.1580;
910050072100089;36.5146;7.0638;29.0848;
910050082100089;36.4658;6.9296;29.0482;
910050092100089;36.4780;6.8198;28.9750;
910050102100089;36.3682;6.6856;29.1946;
910050112100089;36.2584;6.6002;29.3288;
910050122100089;36.1608;6.5270;29.4020;
910050132100089;36.0388;6.4416;29.5362;
910050142100089;35.9290;6.2952;29.6582;
910050152100089;35.9900;6.2342;29.6826;
910050162100089;36.0632;6.2098;29.6948;
910050172100089;36.0632;6.1854;29.7314;
910050182100089;36.2096;6.1732;29.6094;
910050192100089;36.3438;6.1366;29.4630;
910050202100089;36.5634;6.1732;29.2556;
910050212100089;36.6366;6.2098;29.1092;
910050222100089;36.8440;6.2220;28.8042;
910050232100089;36.9904;6.2464;28.6212;
910050242100089;37.0148;6.2586;28.5114;
910050252100089;37.0880;6.2220;28.5114;
910050262100089;37.0270;6.1854;28.6090;
910050272100089;36.8806;6.1976;28.7920;
910050282100089;36.7464;6.1610;28.9994;
910050292100089;36.7342;6.1000;29.0360;
910050302100089;36.6488;6.0756;29.2678;
910050312100089;36.4658;6.0024;29.5362;
910050322100089;36.4292;5.9780;29.6704;
910050332100089;36.4170;5.9536;29.6582;
910050342100089;36.6000;5.9536;29.4142;
910050352100089;36.9172;5.9780;29.0482;
910050362100089;37.2222;5.9414;28.8164;
910050372100089;37.3564;5.9292;28.7310;
910050382100089;37.3808;5.9536;28.7310;
910050392100089;37.5150;5.9902;28.6090;
910050402100089;37.6248;6.0146;28.5236;
910050412100089;37.6248;6.0146;28.5480;
910050422100089;37.4540;5.9536;28.7554;
910050432100089;37.3198;5.8926;28.9628;
910050442100089;37.3198;5.8926;28.8896;
910050452100089;37.2832;5.8804;28.9262;
910050462100089;37.2832;5.8438;28.8896;
910050472100089;37.2832;5.8316;28.8164;
910050482100089;37.3442;5.7706;28.7066;
910050492100089;37.4296;5.7584;28.6700;
910050502100089;37.5638;5.7828;28.5724;
910050512100089;37.5638;5.8072;28.6456;
910050522100089;37.2832;5.7706;29.0238;
910050532100089;37.2344;5.7096;29.1214;
910050542100089;37.1856;5.6608;29.2312;
910050552100089;37.2222;5.5998;29.3288;
910050562100089;37.1856;5.5754;29.3898;
910050572100089;37.1978;5.5388;29.4874;
910050582100089;37.1368;5.5266;29.6582;
910050592100089;37.0880;5.4778;29.7070;
910050602100089;37.1612;5.5144;29.5850;
910050612100089;37.1612;5.5754;29.6338;
910050622100089;37.2222;5.6120;29.6216;
910050632100089;37.1612;5.6608;29.6704;
910050642100089;37.1002;5.7340;29.8412;
910050652100089;37.0392;5.7950;29.8778;
910050662100089;37.0270;5.8316;29.8046;
910050672100089;37.0758;5.9048;29.8046;
910050682100089;37.1490;5.9536;29.7436;
910050692100089;37.1856;6.0268;29.6704;
910050702100089;37.1612;6.1122;29.6704;
910050712100089;37.2466;6.1854;29.5240;
910050722100089;37.2344;6.2952;29.5118;
910050732100089;37.3198;6.4416;29.3044;
910050742100089;37.3930;6.5514;29.2312;
910050752100089;37.3808;6.6612;29.1946;
910050762100089;37.3076;6.7588;29.2068;
910050772100089;37.2466;6.8320;29.2312;
910050782100089;37.2344;6.9662;29.2068;
910050792100089;37.1734;7.1126;29.1946;
910050802100089;37.3198;7.2956;28.9262;
910050812100089;37.3442;7.4420;28.8286;
910050822100089;37.2100;7.6006;28.8164;
910050832100089;37.3686;7.8202;28.6456;
910050842100089;37.4174;8.0154;28.4748;
910050852100089;37.5028;8.2228;28.3650;
910050862100089;37.4784;8.4058;28.1332;
910050872100089;37.4174;8.5644;28.1576;
910050882100089;37.3198;8.6742;28.1698;
910050892100089;37.2100;8.8328;28.2064;
910050902100089;37.3442;8.9914;28.0234;
910050912100089;37.3564;9.1378;27.8404;
910050922100089;37.4296;9.3208;27.5964;
910050932100089;37.4662;9.4672;27.4134;
910050942100089;37.4662;9.5648;27.4622;
910050952100089;37.5760;9.7112;27.3280;
910050962100089;37.6980;9.8454;27.0840;
910050972100089;37.8566;9.9308;26.8400;
910050982100089;37.9664;9.9918;26.6692;
910050992100089;38.0518;10.0406;26.5106;
910051002100089;38.1616;10.0772;26.4252;
910051012100089;38.2470;10.0284;26.3032;
910051022100089;38.4666;10.0406;25.9860;
910051032100089;38.5398;10.0528;25.8152;
910051042100089;38.4544;10.0040;25.8518;
910051052100089;38.2836;9.9796;26.1812;
910051062100089;38.1006;9.9430;26.4496;
910051072100089;37.7468;9.8942;26.9132;
910051082100089;37.4784;9.8454;27.3524;
910051092100089;37.1368;9.8576;27.8160;
910051102100089;36.9050;9.8088;28.2430;
910051112100089;36.7952;9.6990;28.5724;
910051122100089;36.7708;9.6258;28.7188;
910051132100089;36.9782;9.5526;28.6578;
910051142100089;37.0758;9.5282;28.6822;
910051152100089;37.1124;9.4062;28.7554;
910051162100089;37.1612;9.2720;28.8774;
910051172100089;37.2100;9.1622;28.9140;
910051182100089;37.2710;9.0524;28.9750;
910051192100089;37.2588;8.9670;29.0726;
910051202100089;37.3076;8.8938;29.2434;
910051212100089;37.1612;8.7718;29.4142;
910051222100089;37.1002;8.6498;29.6704;
910051232100089;37.1612;8.5766;29.7924;
910051242100089;37.2466;8.4912;29.7314;
910051252100089;37.5516;8.4302;29.4752;
910051262100089;37.7346;8.3570;29.3654;
910051272100089;37.8932;8.2960;29.2678;
910051282100089;37.9786;8.2106;29.2312;
910051292100089;38.0518;8.0886;29.2190;
910051302100089;38.1128;7.9300;29.1214;
910051312100089;38.2348;7.7958;29.0726;
910051322100089;38.1372;7.6738;29.2678;
910051332100089;37.9176;7.5274;29.6338;
910051342100089;37.6980;7.3688;29.9388;
910051352100089;37.5882;7.2346;30.0852;
910051362100089;37.4906;7.0882;30.2316;
910051372100089;37.5638;6.9784;30.2194;
910051382100089;37.4540;6.8930;30.4146;
910051392100089;37.3930;6.7710;30.4756;
910051402100089;37.4784;6.6978;30.3658;
910051412100089;37.4662;6.6002;30.3658;
910051422100089;37.4174;6.5270;30.3658;
910051432100089;37.4662;6.4172;30.4268;
910051442100089;37.3686;6.3440;30.5122;
910051452100089;37.2344;6.2830;30.6220;
910051462100089;37.3076;6.2586;30.4756;
910051472100089;37.3808;6.2098;30.4390;
910051482100089;37.3320;6.1244;30.5000;
910051492100089;37.3198;6.1000;30.5366;
910051502100089;37.4296;6.0634;30.4268;
910051512100089;37.3320;6.0146;30.4390;
910051522100089;37.5150;6.0390;30.2560;
910051532100089;37.5638;6.0878;30.2560;
910051542100089;37.6248;6.0878;30.2194;
910051552100089;37.7102;6.1366;30.1706;
910051562100089;37.7346;6.1488;30.1584;
910051572100089;37.9054;6.2464;29.9022;
910051582100089;38.0152;6.3196;29.8290;
910051592100089;38.1860;6.3806;29.6460;
910051602100089;38.1494;6.4294;29.6460;
910051612100089;38.1982;6.4050;29.4386;
910051622100089;38.1982;6.4904;29.4508;
910051632100089;38.1738;6.5392;29.4264;
910051642100089;38.0762;6.6246;29.4874;
910051652100089;37.9176;6.6246;29.8290;
910051662100089;37.8078;6.6734;29.8168;
910051672100089;37.6248;6.7466;30.0364;
910051682100089;37.4662;6.7954;30.2072;
910051692100089;37.3076;6.9052;30.4390;
910051702100089;37.2344;6.9418;30.4756;
910051712100089;37.1490;7.0516;30.5488;
910051722100089;37.2588;7.1614;30.3902;
910051732100089;37.4296;7.2956;30.1584;
910051742100089;37.4418;7.3932;30.1950;
910051752100089;37.6492;7.5030;30.0120;
910051762100089;37.6492;7.6250;30.0730;
910051772100089;37.6614;7.7714;30.1462;
910051782100089;37.6126;7.9056;30.2438;
910051792100089;37.6248;8.0154;30.2560;
910051802100089;37.5394;8.0886;30.4268;
910051812100089;37.5394;8.2106;30.3658;
910051822100089;37.7346;8.2960;30.0608;
910051832100089;37.8932;8.4180;29.9022;
910051842100089;38.2104;8.5156;29.4752;
910051852100089;38.4422;8.5644;29.2068;
910051862100089;38.6008;8.6254;29.0116;
910051872100089;38.6496;8.6620;28.9140;
910051882100089;38.8448;8.6986;28.7310;
910051892100089;38.7472;8.7352;28.7920;
910051902100089;38.6130;8.8084;28.9750;
910051912100089;38.4666;8.8694;29.1214;
910051922100089;38.3690;8.8938;29.2312;
910051932100089;38.4666;8.9426;29.1092;
910051942100089;38.5642;8.9548;28.9628;
910051952100089;38.4910;8.9304;28.9750;
910051962100089;38.4788;8.9426;28.9262;
910051972100089;38.5886;8.9060;28.8164;
910051982100089;38.6618;8.9060;28.7920;
910051992100089;38.6252;8.8450;28.7676;
910052002100089;38.5154;8.7962;28.8652;
910052012100089;38.3446;8.7474;28.9628;
910052022100089;38.2226;8.7352;29.1092;
910052032100089;38.2836;8.7596;29.0726;
910052042100089;38.1982;8.7962;29.1458;
910052052100089;38.1494;8.8084;29.2190;
910052062100089;38.0030;8.8206;29.3288;
910052072100089;37.9420;8.8084;29.3898;
910052082100089;37.9298;8.8084;29.4508;
910052092100089;37.9908;8.8938;29.3776;
910052102100089;38.0640;8.9182;29.2800;
910052112100089;38.0884;8.9548;29.2190;
910052122100089;38.0762;8.9670;29.3044;
910052132100089;38.0274;9.0158;29.2800;
910052142100089;38.1250;9.0768;29.1702;
910052152100089;38.1372;9.1256;29.1214;
910052162100089;38.1372;9.1988;29.0116;
910052172100089;38.0274;9.1866;29.1702;
910052182100089;37.7468;9.2110;29.4752;
910052192100089;37.4540;9.2232;29.8168;
910052202100089;37.2466;9.2720;29.9876;
910052212100089;37.2100;9.2720;30.0852;
910052222100089;37.0758;9.2964;30.1584;
910052232100089;37.0514;9.3574;30.2682;
910052242100089;37.0148;9.3574;30.3292;
910052252100089;37.0026;9.3940;30.3170;
910052262100089;37.1002;9.4428;30.1584;
910052272100089;37.2710;9.4916;29.9998;
910052282100089;37.5272;9.5038;29.6094;
910052292100089;37.5760;9.5038;29.4752;
910052302100089;37.7712;9.5038;29.2922;
910052312100089;37.8078;9.4794;29.0970;
910052322100089;37.8322;9.4794;29.1214;
910052332100089;37.9420;9.4794;29.0116;
910052342100089;38.0274;9.4550;28.8652;
910052352100089;38.1006;9.4062;28.7554;
910052362100089;37.9908;9.3696;28.9262;
910052372100089;37.9542;9.3452;29.0482;
910052382100089;37.6614;9.2354;29.3410;
910052392100089;37.5028;9.1866;29.5728;
910052402100089;37.3564;9.1378;29.7314;
910052412100089;37.0758;9.0158;29.9266;
910052422100089;36.9294;8.9060;30.1096;
910052432100089;36.8684;8.8450;30.0730;
910052442100089;36.8684;8.7596;29.9876;
910052452100089;36.8196;8.6864;30.0242;
910052462100089;36.9050;8.6254;29.8778;
910052472100089;37.0514;8.5644;29.6216;
910052482100089;37.2954;8.5034;29.4020;
910052492100089;37.5028;8.4912;29.2068;
910052502100089;37.6004;8.4546;29.1336;
910052512100089;37.6370;8.4180;29.1580;
910052522100089;37.6492;8.3814;29.2068;
910052532100089;37.6614;8.3448;29.1580;
910052542100089;37.6858;8.3204;29.1946;
910052552100089;37.6126;8.2838;29.3410;
910052562100089;37.5516;8.2472;29.2922;
910052572100089;37.5516;8.2228;29.2556;
910052582100089;37.7468;8.1984;29.0848;
910052592100089;37.8200;8.1374;29.0360;
910052602100089;37.8444;8.0764;28.9506;
910052612100089;37.9664;8.0154;28.8408;
910052622100089;38.0884;7.9788;28.7066;
910052632100089;38.2592;7.9666;28.4870;
910052642100089;38.2836;7.9056;28.4626;
910052652100089;38.2348;7.8934;28.6578;
910052662100089;38.1006;7.8812;28.7798;
910052672100089;37.9664;7.8934;28.8896;
910052682100089;38.0152;7.8568;28.9384;
910052692100089;37.9664;7.8446;28.9384;
910052702100089;38.0396;7.8202;28.8164;
910052712100089;38.0274;7.7958;28.9628;
910052722100089;37.9420;7.7836;29.0726;
910052732100089;38.0152;7.7836;28.9994;
910052742100089;37.9786;7.7714;28.9384;
910052752100089;38.0152;7.7348;28.9018;
910052762100089;38.0396;7.7714;28.8896;
910052772100089;37.9908;7.7958;28.9384;
910052782100089;37.9054;7.8080;29.1092;
910052792100089;37.8444;7.7958;29.0360;
910052802100089;37.8200;7.7714;29.0482;
910052812100089;37.7224;7.7104;29.1580;
910052822100089;37.7224;7.6860;29.1702;
910052832100089;37.6858;7.6738;29.2434;
910052842100089;37.6126;7.6738;29.2800;
910052852100089;37.6126;7.6860;29.3166;
910052862100089;37.4540;7.6738;29.4386;
910052872100089;37.3564;7.6738;29.5606;
910052882100089;37.3198;7.6616;29.6704;
910052892100089;37.2832;7.6494;29.6582;
910052902100089;37.3320;7.6372;29.6338;
910052912100089;37.3076;7.6616;29.6460;
910052922100089;37.2954;7.6616;29.6826;
910052932100089;37.3198;7.6738;29.6460;
910052942100089;37.3320;7.6982;29.5850;
910052952100089;37.2832;7.7348;29.6094;
910052962100089;37.2466;7.8080;29.5606;
910052972100089;37.2832;7.8324;29.4508;
910052982100089;37.2344;7.8446;29.4752;
910052992100089;37.2222;7.8202;29.5118;
910053002100089;37.0758;7.7836;29.6216;
910053012100089;36.9416;7.6860;29.8168;
910053022100089;36.8684;7.6494;30.0120;
910053032100089;36.8440;7.5274;30.1340;
910053042100089;36.8806;7.4176;30.1706;
910053052100089;36.8440;7.3078;30.3292;
910053062100089;36.7098;7.2224;30.5122;
910053072100089;36.6732;7.1248;30.4878;
910053082100089;36.8318;7.0028;30.2438;
910053092100089;36.9782;6.9052;29.9632;
910053102100089;37.0758;6.7344;29.7314;
910053112100089;37.1978;6.6002;29.4752;
910053122100089;37.2466;6.4416;29.3776;
910053132100089;37.3442;6.3318;29.1946;
910053142100089;37.4540;6.1854;28.9994;
910053152100089;37.5638;6.0634;28.9506;
910053162100089;37.4418;5.9536;29.0604;
910053172100089;37.3076;5.8560;29.2678;
910053182100089;37.3320;5.7828;29.3288;
910053192100089;37.2344;5.7340;29.4874;
910053202100089;37.1612;5.6974;29.5240;
910053212100089;37.1124;5.6242;29.5606;
910053222100089;37.0514;5.6242;29.6826;
910053232100089;37.0392;5.6242;29.6948;
910053242100089;37.0880;5.5998;29.6582;
910053252100089;37.1856;5.5998;29.5484;
910053262100089;37.1124;5.5876;29.5850;
910053272100089;37.0758;5.5510;29.6582;
910053282100089;37.0392;5.5388;29.7680;
910053292100089;36.9172;5.5632;29.9022;
910053302100089;36.9416;5.5632;29.9754;
910053312100089;36.8440;5.5022;30.0120;
910053322100089;36.7830;5.5266;29.9876;
910053332100089;36.7830;5.5388;30.0486;
910053342100089;36.7586;5.5632;30.0974;
910053352100089;36.8196;5.5876;30.0120;
910053362100089;36.8318;5.6242;30.0120;
910053372100089;36.8318;5.6730;29.9754;
910053382100089;36.7952;5.6852;29.9388;
910053392100089;36.9294;5.7340;29.8046;
910053402100089;36.9660;5.7584;29.8290;
910053412100089;36.8806;5.7584;29.8900;
910053422100089;36.8928;5.7096;29.7680;
910053432100089;36.8684;5.7096;29.7436;
910053442100089;36.8196;5.6974;29.7314;
910053452100089;36.8196;5.6486;29.8046;
910053462100089;36.6732;5.5998;29.9266;
910053472100089;36.3682;5.5998;30.2072;
910053482100089;36.3072;5.5998;30.4268;
910053492100089;36.3072;5.6364;30.4146;
910053502100089;36.4658;5.6974;30.3536;
910053512100089;36.5634;5.7706;30.3536;
910053522100089;36.6854;5.8316;30.1950;
910053532100089;36.7830;5.9048;30.0852;
910053542100089;37.0270;6.0024;29.8900;
910053552100089;37.2710;6.0634;29.7436;
910053562100089;37.3564;6.0878;29.5972;
910053572100089;37.3198;6.1488;29.5972;
910053582100089;37.1734;6.1732;29.7924;
910053592100089;37.0392;6.2098;29.8778;
910053602100089;36.9782;6.2098;29.9510;
910053612100089;36.9172;6.2586;29.9388;
910053622100089;36.7586;6.2708;30.0730;
910053632100089;36.6854;6.2586;30.1462;
910053642100089;36.6732;6.3074;30.0852;
910053652100089;36.7098;6.3074;29.9632;
910053662100089;36.8684;6.3806;29.8046;
910053672100089;36.9416;6.3928;29.6948;
910053682100089;36.9660;6.4538;29.6826;
910053692100089;36.9538;6.4538;29.7680;
910053702100089;36.9294;6.4904;29.7680;
910053712100089;36.9538;6.5392;29.6826;
910053722100089;36.9660;6.5514;29.6948;
910053732100089;37.0148;6.6002;29.7192;
910053742100089;36.9660;6.5514;29.6582;
910053752100089;36.9782;6.5758;29.6216;
910053762100089;37.0026;6.5880;29.6094;
910053772100089;37.0636;6.5880;29.5118;
910053782100089;37.2100;6.6124;29.4264;
910053792100089;37.1246;6.6734;29.5240;
910053802100089;37.0880;6.7222;29.6338;
910053812100089;37.0392;6.7100;29.6948;
910053822100089;36.9782;6.8076;29.8656;
910053832100089;36.9904;6.8320;29.9388;
910053842100089;37.0392;6.8442;29.9144;
910053852100089;37.0392;6.9052;29.9266;
910053862100089;37.0636;6.9174;29.7924;
910053872100089;37.1734;6.8808;29.6460;
910053882100089;37.2222;6.8930;29.4508;
910053892100089;37.2344;6.9540;29.3898;
910053902100089;37.2588;6.9296;29.2922;
910053912100089;37.1124;6.9784;29.3288;
910053922100089;37.0514;6.9784;29.4386;
910053932100089;37.0026;6.9906;29.5484;
910053942100089;36.9538;6.9906;29.6216;
910053952100089;37.0392;7.0638;29.5850;
910053962100089;37.1002;7.0638;29.5606;
910053972100089;37.1612;7.0760;29.5362;
910053982100089;37.1978;7.0516;29.5240;
910053992100089;37.3564;7.0516;29.3410;
910054002100089;37.3198;7.0760;29.3654;
910054012100089;37.2466;7.0882;29.3776;
910054022100089;37.1978;7.1004;29.4996;
910054032100089;37.0880;7.0638;29.5484;
910054042100089;36.9660;7.0760;29.6338;
910054052100089;36.9904;7.0760;29.6460;
910054062100089;37.0026;7.1248;29.5484;
910054072100089;36.9904;7.1370;29.4508;
910054082100089;37.0392;7.1736;29.3166;
910054092100089;37.1002;7.2102;29.1580;
910054102100089;37.1002;7.2346;29.0604;
910054112100089;37.1124;7.2712;28.9994;
910054122100089;37.2222;7.2590;28.9140;
910054132100089;37.2954;7.2468;28.8164;
910054142100089;37.2344;7.2346;28.8530;
910054152100089;37.2466;7.2468;29.0360;
910054162100089;37.4052;7.2590;28.9506;
910054172100089;37.4662;7.2346;28.9628;
910054182100089;37.6492;7.2590;28.8652;
910054192100089;37.8200;7.2224;28.7432;
910054202100089;37.8932;7.2590;28.7310;
910054212100089;37.8444;7.2712;28.7310;
910054222100089;38.0030;7.2956;28.6090;
910054232100089;38.0518;7.2956;28.5968;
910054242100089;37.9542;7.2224;28.7188;
910054252100089;38.1006;7.2468;28.6334;
910054262100089;38.0640;7.2468;28.6456;
910054272100089;37.9664;7.2712;28.7676;
910054282100089;37.8810;7.2590;28.7920;
910054292100089;37.7224;7.2590;28.8896;
910054302100089;37.5516;7.1980;29.1336;
910054312100089;37.4296;7.1248;29.1824;
910054322100089;37.3442;7.1248;29.2312;
910054332100089;37.1856;7.1004;29.4264;
910054342100089;37.0758;7.0150;29.4996;
910054352100089;36.9172;6.9052;29.6948;
910054362100089;36.9538;6.8686;29.7436;
910054372100089;37.0270;6.8076;29.7192;
910054382100089;36.9904;6.7954;29.7924;
910054392100089;36.9294;6.7954;29.8168;
910054402100089;36.8562;6.7222;29.7558;
910054412100089;36.7830;6.6124;29.6460;
910054422100089;36.7098;6.5514;29.6338;
910054432100089;36.8074;6.4904;29.4264;
910054442100089;36.7220;6.3928;29.3654;
910054452100089;36.6366;6.2586;29.3776;
910054462100089;36.5878;6.1366;29.3410;
910054472100089;36.4292;6.0024;29.3410;
910054482100089;36.3072;5.8682;29.4142;
910054492100089;36.1730;5.7706;29.5118;
910054502100089;35.9168;5.6120;29.6826;
910054512100089;35.7826;5.5632;29.7680;
910054522100089;35.6240;5.4534;29.6582;
910054532100089;35.6606;5.4534;29.6094;
910054542100089;35.6728;5.4046;29.4874;
910054552100089;35.7704;5.3436;29.2190;
910054562100089;35.9534;5.3680;29.0238;
910054572100089;35.9778;5.3558;28.9140;
910054582100089;36.2828;5.4412;28.6212;
910054592100089;36.3072;5.4656;28.4260;
910054602100089;36.6366;5.4778;28.2308;
910054612100089;36.6976;5.4290;28.0112;
910054622100089;36.7342;5.4656;27.8404;
910054632100089;36.7708;5.4778;27.9746;
910054642100089;36.6610;5.4534;28.0234;
910054652100089;36.6122;5.4656;28.0722;
910054662100089;36.5634;5.4656;28.1698;
910054672100089;36.5512;5.4168;28.2186;
910054682100089;36.3560;5.4778;28.5846;
910054692100089;36.2462;5.4900;28.9262;
910054702100089;36.3194;5.5022;29.1458;
910054712100089;36.4536;5.5632;29.2312;
910054722100089;36.6122;5.6364;29.2922;
910054732100089;36.7952;5.6852;29.3166;
910054742100089;36.9416;5.7096;29.3288;
910054752100089;37.0514;5.7950;29.4874;
910054762100089;37.0636;5.8072;29.4752;
910054772100089;37.1490;5.8804;29.4996;
910054782100089;37.1246;5.8682;29.6704;
910054792100089;36.9294;5.8560;29.9266;
910054802100089;36.7708;5.8194;30.2316;
910054812100089;36.6610;5.8194;30.4146;
910054822100089;36.5024;5.8194;30.5976;
910054832100089;36.4536;5.7706;30.7318;
910054842100089;36.3316;5.7462;30.9148;
910054852100089;36.3072;5.6852;31.0490;
910054862100089;36.1120;5.6608;31.1344;
910054872100089;36.1974;5.6364;31.0490;
910054882100089;36.2584;5.6242;30.9880;
910054892100089;36.2950;5.5266;30.9270;
910054902100089;36.2950;5.5144;31.0124;
910054912100089;36.1730;5.4290;31.1100;
910054922100089;36.1608;5.4290;31.1588;
910054932100089;36.1120;5.4046;31.1466;
910054942100089;36.2584;5.3680;31.0368;
910054952100089;36.3316;5.3070;31.0246;
910054962100089;36.3926;5.2826;30.9270;
910054972100089;36.3804;5.3070;30.9636;
910054982100089;36.5024;5.2826;30.8904;
910054992100089;36.6732;5.3070;30.7074;
910055002100089;36.7952;5.2704;30.6220;
910055012100089;36.8196;5.2460;30.6708;
910055022100089;36.9172;5.2460;30.5122;
910055032100089;36.9782;5.2704;30.4512;
910055042100089;37.0636;5.3070;30.3780;
910055052100089;37.1490;5.3070;30.3048;
910055062100089;37.2222;5.2826;30.1828;
910055072100089;37.3686;5.2826;29.9510;
910055082100089;37.5760;5.2704;29.6948;
910055092100089;37.7468;5.1972;29.3288;
910055102100089;37.7834;5.1850;29.2800;
910055112100089;37.8078;5.1484;29.2434;
910055122100089;37.8200;5.0630;29.2068;
910055132100089;37.9542;5.0020;29.1824;
910055142100089;37.8932;4.9776;29.2068;
910055152100089;37.8444;4.9288;29.3532;
910055162100089;37.7102;4.8678;29.5728;
910055172100089;37.6370;4.8922;29.7070;
910055182100089;37.6858;4.8556;29.7558;
910055192100089;37.6980;4.8556;29.6460;
910055202100089;37.6614;4.8068;29.6338;
910055212100089;37.6126;4.8068;29.5728;
910055222100089;37.6492;4.7824;29.5362;
910055232100089;37.6370;4.7458;29.5362;
910055242100089;37.6980;4.7580;29.3654;
910055252100089;37.7834;4.7214;29.2678;
910055262100089;37.9054;4.6604;29.1092;
910055272100089;38.0884;4.6238;28.9018;
910055282100089;38.2470;4.6360;28.7798;
910055292100089;38.4300;4.5628;28.4870;
910055302100089;38.5764;4.5262;28.2674;
910055312100089;38.7228;4.4896;28.0600;
910055322100089;38.8692;4.4652;27.9014;
910055332100089;38.9790;4.3920;27.8038;
910055342100089;38.8814;4.3676;27.8526;
910055352100089;38.7716;4.3066;27.9746;
910055362100089;38.7960;4.2456;27.9380;
910055372100089;38.7716;4.2456;28.0600;
910055382100089;38.7594;4.1724;28.0722;
910055392100089;38.5886;4.1114;28.1942;
910055402100089;38.3812;4.0382;28.3650;
910055412100089;38.2714;4.0016;28.4016;
910055422100089;38.2958;3.9528;28.2796;
910055432100089;38.1372;3.8796;28.4016;
910055442100089;38.0396;3.8064;28.4138;
910055452100089;37.9420;3.7332;28.4382;
910055462100089;37.7956;3.7332;28.5358;
910055472100089;37.8810;3.6600;28.5236;
910055482100089;37.8932;3.5868;28.5602;
910055492100089;37.8200;3.5624;28.6578;
910055502100089;37.8444;3.5746;28.6456;
910055512100089;38.0030;3.6112;28.4504;
910055522100089;38.1494;3.5990;28.3406;
910055532100089;38.2226;3.6356;28.2796;
910055542100089;38.2836;3.6478;28.3040;
910055552100089;38.2836;3.6844;28.3406;
910055562100089;38.3324;3.7088;28.3162;
910055572100089;38.3202;3.7210;28.4138;
910055582100089;38.2348;3.7088;28.6456;
910055592100089;38.1616;3.7088;28.7920;
910055602100089;38.0518;3.7332;28.9506;
910055612100089;37.9176;3.7210;29.1702;
910055622100089;37.9176;3.7210;29.1336;
910055632100089;37.8688;3.7698;29.2312;
910055642100089;37.8444;3.8308;29.2800;
910055652100089;37.9908;3.8674;29.1214;
910055662100089;38.0152;3.8796;28.9506;
910055672100089;38.0884;3.9162;28.8652;
910055682100089;38.1006;3.9040;28.9018;
910055692100089;38.2226;3.9406;28.7920;
910055702100089;38.2226;3.9650;28.8896;
910055712100089;38.2714;3.8918;28.7432;
910055722100089;38.4178;3.8552;28.5846;
910055732100089;38.3812;3.8674;28.6334;
910055742100089;38.3202;3.8796;28.8286;
910055752100089;38.1860;3.8186;29.0848;
910055762100089;38.0030;3.7942;29.3044;
910055772100089;37.7834;3.7332;29.4996;
910055782100089;37.6614;3.7088;29.6948;
910055792100089;37.5760;3.7332;29.8900;
910055802100089;37.4662;3.7088;30.0486;
910055812100089;37.4174;3.6722;30.1584;
910055822100089;37.3808;3.6478;30.1828;
910055832100089;37.5272;3.6234;29.9144;
910055842100089;37.6492;3.6112;29.7070;
910055852100089;37.6614;3.5746;29.7192;
910055862100089;37.6614;3.4892;29.6338;
910055872100089;37.6492;3.4404;29.4996;
910055882100089;37.6004;3.4282;29.5606;
910055892100089;37.5150;3.3550;29.4874;
910055902100089;37.5028;3.3062;29.3898;
910055912100089;37.3808;3.2696;29.4630;
910055922100089;37.3564;3.2452;29.4142;
910055932100089;37.5150;3.2452;29.2068;
910055942100089;37.5638;3.2818;29.0848;
910055952100089;37.7102;3.2696;28.8896;
910055962100089;37.8322;3.2574;28.7066;
910055972100089;37.8688;3.2696;28.6822;
910055982100089;37.8810;3.2696;28.7310;
910055992100089;37.8200;3.2574;28.8408;
910056002100089;37.9908;3.2574;28.6578;
910056012100089;38.0518;3.2452;28.4504;
910056022100089;38.1860;3.2452;28.2186;
910056032100089;38.2470;3.2696;28.1576;
910056042100089;38.2348;3.2818;28.1088;
910056052100089;38.2958;3.2940;28.0234;
910056062100089;38.3446;3.3062;27.9502;
910056072100089;38.4666;3.3672;27.7794;
910056082100089;38.2714;3.4038;27.9868;
910056092100089;38.2104;3.3550;28.0844;
910056102100089;38.1006;3.3428;28.1820;
910056112100089;37.9298;3.3672;28.3040;
910056122100089;37.7956;3.3794;28.3650;
910056132100089;37.7712;3.3794;28.3406;
910056142100089;37.7834;3.3794;28.3162;
910056152100089;37.7346;3.4404;28.2552;
910056162100089;37.7590;3.5014;28.2308;
910056172100089;37.5760;3.6234;28.4138;
910056182100089;37.4418;3.6844;28.6334;
910056192100089;37.5028;3.7088;28.5480;
910056202100089;37.5882;3.7698;28.4992;
910056212100089;37.5028;3.8308;28.5602;
910056222100089;37.4296;3.8918;28.6212;
910056232100089;37.4784;3.8674;28.6700;
910056242100089;37.4906;3.8918;28.6822;
910056252100089;37.5882;3.9162;28.5724;
910056262100089;37.8444;3.9772;28.2430;
910056272100089;37.9908;4.0138;28.1088;
910056282100089;38.0762;4.0626;27.9990;
910056292100089;38.2226;4.1236;27.8648;
910056302100089;38.3446;4.2212;27.6696;
910056312100089;38.3080;4.3188;27.6574;
910056322100089;38.3324;4.3920;27.5720;
910056332100089;38.3934;4.4408;27.4866;
910056342100089;38.3812;4.5140;27.4744;
910056352100089;38.3690;4.6238;27.5842;
910056362100089;38.4056;4.6970;27.5476;
910056372100089;38.4178;4.7702;27.5354;
910056382100089;38.5276;4.8068;27.4500;
910056392100089;38.6984;4.9044;27.3402;
910056402100089;38.8814;4.9410;27.2548;
910056412100089;38.8936;5.0020;27.2548;
910056422100089;38.8448;5.0508;27.2792;
910056432100089;38.7472;5.0874;27.2914;
910056442100089;38.5398;5.1362;27.4988;
910056452100089;38.3934;5.1728;27.6574;
910056462100089;38.1982;5.2460;27.8404;
910056472100089;37.9908;5.2826;28.0478;
910056482100089;37.8200;5.3924;28.1820;
910056492100089;37.7102;5.4656;28.3528;
910056502100089;37.7102;5.5632;28.4748;
910056512100089;37.6370;5.6608;28.5602;
910056522100089;37.6248;5.7828;28.6456;
910056532100089;37.7102;5.9170;28.6212;
910056542100089;37.6736;6.0146;28.6334;
910056552100089;37.8078;6.1610;28.5236;
910056562100089;37.8444;6.2830;28.4382;
910056572100089;37.9054;6.4050;28.3162;
910056582100089;37.8322;6.5514;28.3040;
910056592100089;37.8200;6.6978;28.3406;
910056602100089;37.8078;6.7710;28.1454;
910056612100089;37.6858;6.8686;28.2186;
910056622100089;37.6126;6.9540;28.2674;
910056632100089;37.3930;7.0150;28.3528;
910056642100089;37.1246;7.1004;28.5480;
910056652100089;36.9294;7.2346;28.7554;
910056662100089;36.7586;7.3078;28.8530;
910056672100089;36.5878;7.3566;28.8896;
910056682100089;36.4780;7.5152;29.1458;
910056692100089;36.5146;7.5762;28.9872;
910056702100089;36.4658;7.6860;28.9506;
910056712100089;36.3682;7.8324;28.9872;
910056722100089;36.4414;7.9178;28.8286;
910056732100089;36.4658;7.9788;28.6700;
910056742100089;36.5024;8.0642;28.4870;
910056752100089;36.5268;8.1374;28.4016;
910056762100089;36.5024;8.1496;28.2674;
910056772100089;36.3926;8.2716;28.2674;
910056782100089;36.4048;8.3204;28.1820;
910056792100089;36.4536;8.3204;28.0112;
910056802100089;36.3926;8.3814;27.9746;
910056812100089;36.4170;8.4424;27.8526;
910056822100089;36.3438;8.4790;27.9258;
910056832100089;36.3072;8.5400;27.9502;
910056842100089;36.2706;8.6010;27.8770;
910056852100089;36.3072;8.6376;27.8526;
910056862100089;36.2584;8.7108;27.9136;
910056872100089;36.2584;8.8084;27.9380;
910056882100089;36.3682;8.8816;27.8770;
910056892100089;36.4414;8.9548;27.8526;
910056902100089;36.5268;9.0158;27.7550;
910056912100089;36.6366;9.1134;27.6086;
910056922100089;36.6976;9.2110;27.5598;
910056932100089;36.6366;9.2842;27.6330;
910056942100089;36.7464;9.3574;27.6086;
910056952100089;36.8440;9.4550;27.5232;
910056962100089;36.7586;9.4916;27.6208;
910056972100089;36.7220;9.5526;27.6452;
910056982100089;36.8562;9.6014;27.6330;
910056992100089;37.0026;9.6380;27.6086;
910057002100089;37.1368;9.6868;27.6574;
910057012100089;37.3442;9.7356;27.5964;
910057022100089;37.3808;9.7844;27.5598;
910057032100089;37.4906;9.7722;27.6574;
910057042100089;37.6492;9.7600;27.6818;
910057052100089;37.6370;9.7844;27.8404;
910057062100089;37.4784;9.7478;28.0966;
910057072100089;37.2466;9.7356;28.4870;
910057082100089;37.0026;9.6624;28.8774;
910057092100089;36.8562;9.6136;29.1580;
910057102100089;36.6488;9.5282;29.5362;
910057112100089;36.5268;9.4306;29.7314;
910057122100089;36.4536;9.4062;29.9388;
910057132100089;36.4780;9.3330;30.0486;
910057142100089;36.5024;9.2598;30.1584;
910057152100089;36.6732;9.2110;30.1706;
910057162100089;36.8928;9.1988;29.9998;
910057172100089;36.9538;9.1622;29.9998;
910057182100089;37.2344;9.1134;29.8656;
910057192100089;37.2954;9.0890;29.9022;
910057202100089;37.0392;9.0036;30.2316;
910057212100089;37.0270;8.9182;30.2682;
910057222100089;37.1612;8.8450;30.1828;
910057232100089;37.1978;8.7474;30.1218;
910057242100089;37.2954;8.6132;30.0486;
910057252100089;37.4418;8.4546;29.9876;
910057262100089;37.3320;8.2716;30.0974;
910057272100089;37.3808;8.0764;30.0730;
910057282100089;37.7468;7.9300;29.7436;
910057292100089;37.7834;7.7104;29.7558;
910057302100089;37.6492;7.4908;29.9510;
910057312100089;37.5150;7.2834;30.1218;
910057322100089;37.2222;7.0638;30.5610;
910057332100089;36.9416;6.8320;30.8904;
910057342100089;36.8196;6.6734;31.1100;
910057352100089;36.5878;6.4904;31.4028;
910057362100089;36.3438;6.3074;31.6712;
910057372100089;36.1364;6.1854;32.0128;
910057382100089;36.0754;6.1000;32.0982;
910057392100089;36.0632;6.0390;32.1470;
910057402100089;36.2340;5.9536;31.9152;
910057412100089;36.3438;5.9536;31.8298;
910057422100089;36.3438;5.8560;31.6956;
910057432100089;36.4414;5.8560;31.6468;
910057442100089;36.6122;5.8682;31.5248;
910057452100089;36.8562;5.8560;31.2686;
910057462100089;37.1368;5.8560;30.9514;
910057472100089;37.2710;5.7828;30.7806;
910057482100089;37.3320;5.7706;30.7684;
910057492100089;37.3320;5.7340;30.7318;
910057502100089;37.4540;5.7828;30.7196;
910057512100089;37.7224;5.7828;30.4268;
910057522100089;37.8444;5.7340;30.2316;
910057532100089;37.9908;5.7706;30.1218;
910057542100089;37.9664;5.7218;30.1340;
910057552100089;37.9664;5.7462;30.1706;
910057562100089;38.0152;5.7828;30.0852;
910057572100089;38.1494;5.7584;29.9144;
910057582100089;38.5276;5.7706;29.5240;
910057592100089;38.4544;5.7584;29.5728;
910057602100089;38.3690;5.7828;29.6460;
910057612100089;38.3202;5.7828;29.6948;
910057622100089;38.3080;5.8072;29.6826;
910057632100089;38.2958;5.7828;29.8046;
910057642100089;38.2958;5.8072;29.7924;
910057652100089;38.2714;5.8194;29.8168;
910057662100089;37.9908;5.7828;30.1218;
910057672100089;37.9542;5.7584;30.0730;
910057682100089;38.0274;5.7340;30.0486;
910057692100089;37.9664;5.7096;30.0242;
910057702100089;37.8444;5.6852;30.1584;
910057712100089;37.8444;5.7218;30.1218;
910057722100089;37.7102;5.6852;30.2438;
910057732100089;37.6614;5.6608;30.3292;
910057742100089;37.5150;5.6364;30.5000;
910057752100089;37.3808;5.6852;30.6830;
910057762100089;37.2954;5.7096;30.7440;
910057772100089;37.1490;5.7462;30.8782;
910057782100089;37.0636;5.7706;30.9880;
910057792100089;36.9782;5.8072;31.0368;
910057802100089;36.9660;5.8072;31.0612;
910057812100089;36.8440;5.8682;31.1344;
910057822100089;36.8196;5.9536;31.0978;
910057832100089;36.8440;6.0268;31.1222;
910057842100089;36.9416;6.1000;31.0124;
910057852100089;37.1368;6.1488;30.7684;
910057862100089;37.3442;6.2098;30.5000;
910057872100089;37.6126;6.2708;30.2316;
910057882100089;37.7468;6.3928;30.0120;
910057892100089;37.9542;6.5026;29.7924;
910057902100089;38.0030;6.5636;29.6704;
910057912100089;38.2592;6.6124;29.3532;
910057922100089;38.2104;6.6978;29.3776;
910057932100089;38.1250;6.7954;29.5606;
910057942100089;38.0152;6.8930;29.6948;
910057952100089;37.7712;6.9418;29.9266;
910057962100089;37.6858;6.9784;30.1096;
910057972100089;37.6004;7.0272;30.2560;
910057982100089;37.6126;7.0882;30.3170;
910057992100089;37.4174;7.1614;30.5610;
910058002100089;37.3930;7.1614;30.6098;
910058012100089;37.4052;7.1614;30.5976;
910058022100089;37.3564;7.1492;30.6464;
910058032100089;37.2954;7.1980;30.7074;
910058042100089;37.3198;7.2102;30.6708;
910058052100089;37.3808;7.2468;30.6098;
910058062100089;37.3930;7.2834;30.5122;
910058072100089;37.3564;7.2712;30.5610;
910058082100089;37.2344;7.2712;30.7928;
910058092100089;37.1612;7.2346;30.8172;
910058102100089;37.2344;7.2346;30.7440;
910058112100089;37.3320;7.1736;30.6342;
910058122100089;37.3320;7.1492;30.5732;
910058132100089;37.2832;7.1248;30.6464;
910058142100089;37.2832;7.0150;30.7196;
910058152100089;37.2588;6.9662;30.8172;
910058162100089;37.3442;6.9174;30.5854;
910058172100089;37.2466;6.8930;30.7318;
910058182100089;37.2344;6.8320;30.8904;
910058192100089;37.0270;6.8076;31.1954;
910058202100089;37.0514;6.6978;31.3052;
910058212100089;36.9904;6.5758;31.3296;
910058222100089;36.9416;6.5026;31.4028;
910058232100089;37.2222;6.4050;31.1588;
910058242100089;37.4784;6.3196;30.9270;
910058252100089;37.8566;6.2464;30.5732;
910058262100089;38.1860;6.1854;30.1706;
910058272100089;38.6984;6.1000;29.5728;
910058282100089;38.9790;6.0512;29.1214;
910058292100089;39.2596;5.9902;28.8530;
910058302100089;39.5524;5.9780;28.4992;
910058312100089;39.5890;5.9048;28.4016;
910058322100089;39.4060;5.8560;28.6578;
910058332100089;39.1986;5.7462;28.9628;
910058342100089;38.8814;5.6120;29.3288;
910058352100089;38.6252;5.5266;29.6460;
910058362100089;38.4178;5.4046;29.9998;
910058372100089;38.3080;5.3070;30.1340;
910058382100089;38.2958;5.1972;30.2560;
910058392100089;38.1738;5.1118;30.3780;
910058402100089;38.2348;4.9898;30.3292;
910058412100089;38.2836;4.8922;30.1828;
910058422100089;38.3812;4.8190;30.0364;
910058432100089;38.3812;4.6848;30.0364;
910058442100089;38.3568;4.5872;29.9754;
910058452100089;38.4178;4.4652;29.8656;
910058462100089;38.4056;4.3676;29.8168;
910058472100089;38.4666;4.2334;29.6704;
910058482100089;38.5642;4.1358;29.6094;
910058492100089;38.6618;4.0382;29.4508;
910058502100089;38.7106;3.9406;29.4386;
910058512100089;38.7106;3.8552;29.5484;
910058522100089;38.8082;3.8430;29.5606;
910058532100089;38.7716;3.7698;29.6338;
910058542100089;38.5886;3.6722;29.9144;
910058552100089;38.5154;3.5990;30.1096;
910058562100089;38.3446;3.5136;30.2926;
910058572100089;38.2714;3.4160;30.4390;
910058582100089;38.1738;3.3306;30.5122;
910058592100089;38.2958;3.2818;30.2926;
910058602100089;38.2714;3.1720;30.2560;
910058612100089;38.3324;3.1110;30.2194;
910058622100089;38.6008;3.0866;29.9144;
910058632100089;39.0644;3.0866;29.2922;
910058642100089;39.2840;3.0744;29.0970;
910058652100089;39.4426;3.1110;28.9506;
910058662100089;39.5646;3.0988;28.7920;
910058672100089;39.5280;3.0622;28.8042;
910058682100089;39.4060;3.0622;28.9384;
910058692100089;39.3328;3.0866;29.0360;
910058702100089;39.1986;3.0500;29.2190;
910058712100089;38.6984;3.0378;29.8290;
910058722100089;38.4544;3.0256;30.0730;
910058732100089;38.1494;3.0012;30.3780;
910058742100089;37.9908;2.9768;30.6586;
910058752100089;37.7590;3.0012;30.9758;
910058762100089;37.6370;3.0256;31.1710;
910058772100089;37.4540;2.9646;31.3662;
910058782100089;37.3808;2.9768;31.4638;
910058792100089;37.2954;2.9646;31.5858;
910058802100089;37.3076;2.9158;31.5370;
910058812100089;37.3564;2.8792;31.5248;
910058822100089;37.4296;2.9158;31.3906;
910058832100089;37.6126;2.8670;31.0856;
910058842100089;37.7834;2.8304;30.8538;
910058852100089;37.9908;2.8426;30.6220;
910058862100089;37.9298;2.8182;30.5732;
910058872100089;37.9298;2.8182;30.4878;
910058882100089;37.9542;2.7938;30.3536;
910058892100089;38.0518;2.8060;30.1828;
910058902100089;38.1738;2.7938;29.9876;
910058912100089;38.2470;2.8060;29.8534;
910058922100089;38.2714;2.8182;29.7680;
910058932100089;38.1372;2.8304;29.8412;
910058942100089;38.1860;2.8548;29.7314;
910058952100089;38.3080;2.8792;29.4874;
910058962100089;38.4056;2.9402;29.3654;
910058972100089;38.4422;2.9768;29.2556;
910058982100089;38.3812;3.0012;29.2190;
910058992100089;38.3934;3.0500;29.1458;
910059002100089;38.4178;3.0988;29.0482;
910059012100089;38.5520;3.1110;28.7432;
910059022100089;38.6008;3.1720;28.6822;
910059032100089;38.6252;3.1964;28.6944;
910059042100089;38.5398;3.2452;28.7188;
910059052100089;38.4056;3.2818;28.8286;
910059062100089;38.3446;3.3306;28.8896;
910059072100089;38.2470;3.3916;29.0238;
910059082100089;38.2714;3.4526;28.9262;
910059092100089;38.2714;3.5624;28.8286;
910059102100089;38.3812;3.6478;28.6334;
910059112100089;38.4300;3.7942;28.5236;
910059122100089;38.5032;3.9406;28.3772;
910059132100089;38.5154;4.1236;28.3650;
910059142100089;38.4666;4.2700;28.4138;
910059152100089;38.3934;4.4042;28.4626;
910059162100089;38.1616;4.5506;28.7310;
910059172100089;37.9298;4.6604;29.0604;
910059182100089;37.7346;4.7824;29.2800;
910059192100089;37.5394;4.8678;29.4508;
910059202100089;37.3320;4.9044;29.6826;
910059212100089;37.2344;4.9166;29.6948;
910059222100089;37.2466;4.9532;29.7070;
910059232100089;37.2832;4.9776;29.6826;
910059242100089;37.2832;5.0020;29.6826;
910059252100089;37.3076;5.0752;29.6704;
910059262100089;37.2954;5.1118;29.7558;
910059272100089;37.2344;5.1606;29.8778;
910059282100089;37.1734;5.2216;30.0120;
910059292100089;37.2710;5.2704;29.9266;
910059302100089;37.3442;5.3558;29.7924;
910059312100089;37.3076;5.4534;29.8778;
910059322100089;37.4296;5.5144;29.7558;
910059332100089;37.5272;5.5754;29.6216;
910059342100089;37.6858;5.6242;29.3776;
910059352100089;37.8688;5.6852;29.1336;
910059362100089;38.1372;5.7096;28.8408;
910059372100089;38.2226;5.7096;28.7798;
910059382100089;38.1494;5.6486;28.8896;
910059392100089;38.2714;5.5998;28.7066;
910059402100089;38.3690;5.5876;28.5724;
910059412100089;38.3812;5.5388;28.5480;
910059422100089;38.3202;5.4778;28.6212;
910059432100089;38.2836;5.4046;28.6700;
910059442100089;38.1860;5.3680;28.6944;
910059452100089;38.2104;5.4168;28.6334;
910059462100089;38.2592;5.4290;28.4992;
910059472100089;38.1494;5.4412;28.5114;
910059482100089;38.0274;5.5022;28.5968;
910059492100089;37.9786;5.5266;28.6578;
910059502100089;37.8688;5.6486;28.7920;
910059512100089;37.7468;5.6852;28.9384;
910059522100089;37.6736;5.7584;29.0604;
910059532100089;37.3320;5.7950;29.5240;
910059542100089;37.1246;5.8682;29.8656;
910059552100089;36.9660;5.9292;30.0974;
910059562100089;36.8318;5.9658;30.3658;
910059572100089;36.7098;6.0268;30.4390;
910059582100089;36.7830;6.0756;30.2682;
910059592100089;36.7952;6.1366;30.2194;
910059602100089;36.7586;6.2220;30.2682;
910059612100089;36.9172;6.3074;29.9510;
910059622100089;37.0392;6.3684;29.7314;
910059632100089;37.2222;6.4660;29.5240;
910059642100089;37.3198;6.5026;29.3288;
910059652100089;37.4052;6.5026;29.2922;
910059662100089;37.3442;6.5026;29.4142;
910059672100089;37.3442;6.5270;29.3776;
910059682100089;37.4052;6.5148;29.2556;
910059692100089;37.4906;6.5026;29.1458;
910059702100089;37.4906;6.5026;29.1946;
910059712100089;37.4296;6.4416;29.2312;
910059722100089;37.3930;6.4294;29.3044;
910059732100089;37.3930;6.4416;29.2312;
910059742100089;37.3686;6.3684;29.2068;
910059752100089;37.3076;6.3440;29.3288;
910059762100089;37.1612;6.3074;29.5362;
910059772100089;36.9660;6.2464;29.8290;
910059782100089;36.8928;6.2342;29.8778;
910059792100089;36.8684;6.2220;29.9144;
910059802100089;36.8928;6.1488;29.8778;
910059812100089;36.8440;6.0634;29.9632;
910059822100089;36.9538;6.0512;29.9144;
910059832100089;36.9660;6.0024;29.8656;
910059842100089;37.2710;6.0146;29.4264;
910059852100089;37.3442;5.9780;29.2800;
910059862100089;37.2466;5.9292;29.4264;
910059872100089;37.0880;5.9292;29.5728;
910059882100089;36.8440;5.9536;29.8168;
910059892100089;36.6976;5.9780;29.9632;
910059902100089;36.4170;5.9780;30.2438;
910059912100089;36.2950;6.0024;30.4268;
910059922100089;36.0632;5.9780;30.7562;
910059932100089;36.0754;6.0390;30.7684;
910059942100089;36.1974;6.0146;30.5610;
910059952100089;36.4048;6.0024;30.3170;
910059962100089;36.7220;6.0390;29.9510;
910059972100089;36.8806;6.0268;29.7680;
910059982100089;37.0392;6.0146;29.6094;
910059992100089;37.2344;6.0268;29.3776;
910060002100089;37.2954;6.0512;29.3288;
910060012100089;37.2954;6.0024;29.3288;
910060022100089;37.3198;6.0024;29.3288;
910060032100089;37.1978;5.9536;29.4630;
910060042100089;37.0392;5.9048;29.6094;
910060052100089;36.8684;5.9292;29.7680;
910060062100089;36.8318;5.9170;29.8534;
910060072100089;36.7464;5.8682;29.8778;
910060082100089;36.6000;5.8072;29.9998;
910060092100089;36.5512;5.7950;30.0486;
910060102100089;36.4902;5.7706;30.1096;
910060112100089;36.4292;5.7584;30.1584;
910060122100089;36.4414;5.6852;30.1218;
910060132100089;36.6000;5.6242;29.9510;
910060142100089;36.6244;5.5754;29.7802;
910060152100089;36.6488;5.5510;29.7436;
910060162100089;36.7830;5.4534;29.6094;
910060172100089;36.8196;5.3680;29.5362;
910060182100089;36.9050;5.2948;29.4142;
910060192100089;37.1368;5.2338;29.1214;
910060202100089;37.3320;5.2094;28.8774;
910060212100089;37.3686;5.1240;28.7066;
910060222100089;37.4784;5.1118;28.6212;
910060232100089;37.5028;5.0264;28.6334;
910060242100089;37.4418;4.9898;28.6822;
910060252100089;37.5028;4.9410;28.5846;
910060262100089;37.5028;4.9044;28.5358;
910060272100089;37.3076;4.8434;28.7676;
910060282100089;37.1124;4.7946;29.0116;
910060292100089;37.0636;4.7824;29.1458;
910060302100089;36.9904;4.7458;29.1702;
910060312100089;36.9660;4.7458;29.1214;
910060322100089;37.0880;4.7702;28.9628;
910060332100089;37.0270;4.7458;29.0116;
910060342100089;37.0392;4.7702;28.9384;
910060352100089;37.1368;4.7458;28.7798;
910060362100089;37.2344;4.7336;28.5968;
910060372100089;37.2832;4.6970;28.4992;
910060382100089;37.2344;4.6360;28.4748;
910060392100089;37.2222;4.5872;28.3894;
910060402100089;37.1734;4.5384;28.3040;
910060412100089;37.1734;4.5262;28.1576;
910060422100089;37.0148;4.5140;28.2064;
910060432100089;36.8684;4.5384;28.1942;
910060442100089;36.7830;4.5628;28.1576;
910060452100089;36.5878;4.5872;28.2064;
910060462100089;36.4170;4.6238;28.2796;
910060472100089;36.3194;4.6482;28.2674;
910060482100089;36.1486;4.6482;28.4504;
910060492100089;35.9412;4.6848;28.5846;
910060502100089;35.8558;4.6726;28.6700;
910060512100089;35.8802;4.7092;28.5724;
910060522100089;35.7582;4.7702;28.5968;
910060532100089;35.6972;4.8678;28.5846;
910060542100089;35.8314;4.9410;28.4382;
910060552100089;35.8070;5.0508;28.4382;
910060562100089;35.7582;5.1972;28.3894;
910060572100089;35.8192;5.3436;28.3162;
910060582100089;35.8802;5.5388;28.1942;
910060592100089;35.7704;5.6730;28.2430;
910060602100089;35.8314;5.8072;28.1820;
910060612100089;35.8070;5.9170;28.2552;
910060622100089;35.6362;6.1000;28.4138;
910060632100089;35.5142;6.2342;28.5236;
910060642100089;35.3922;6.3562;28.6944;
910060652100089;35.2580;6.4904;28.8164;
910060662100089;35.0872;6.5758;28.9384;
910060672100089;34.9774;6.7344;29.1336;
910060682100089;34.7578;6.8320;29.4874;
910060692100089;34.7212;6.9906;29.4142;
910060702100089;34.7090;7.1126;29.3410;
910060712100089;34.6846;7.2224;29.3654;
910060722100089;34.6602;7.3200;29.2678;
910060732100089;34.6358;7.4054;29.3410;
910060742100089;34.5748;7.5152;29.4386;
910060752100089;34.7334;7.6616;29.2800;
910060762100089;34.7700;7.7714;29.1458;
910060772100089;34.6358;7.8446;29.3166;
910060782100089;34.4894;7.8690;29.5362;
910060792100089;34.4528;7.9666;29.5484;
910060802100089;34.2576;8.0398;29.8412;
910060812100089;34.0014;8.0886;30.0608;
910060822100089;33.9038;8.1374;30.1950;
910060832100089;33.6354;8.1374;30.4512;
910060842100089;33.4524;8.1618;30.6220;
910060852100089;33.3792;8.2228;30.7318;
910060862100089;33.4158;8.2960;30.6342;
910060872100089;33.5012;8.3326;30.5000;
910060882100089;33.7940;8.3692;30.1462;
910060892100089;34.1966;8.4424;29.6826;
910060902100089;34.4650;8.4790;29.2312;
910060912100089;34.7090;8.5156;28.9262;
910060922100089;34.9164;8.6010;28.6456;
910060932100089;35.1360;8.6254;28.4138;
910060942100089;35.2824;8.7108;28.2918;
910060952100089;35.2946;8.7596;28.2308;
910060962100089;35.2092;8.8206;28.2918;
910060972100089;35.0872;8.8694;28.4748;
910060982100089;34.9530;8.9426;28.7066;
910060992100089;34.8432;9.0036;28.9018;
910061002100089;34.7456;9.0036;29.1336;
910061012100089;34.7090;9.0646;29.2800;
910061022100089;34.7090;9.1256;29.2556;
910061032100089;34.7212;9.2110;29.3898;
910061042100089;34.7944;9.2964;29.3898;
910061052100089;34.9286;9.3452;29.3288;
910061062100089;35.0262;9.4550;29.3410;
910061072100089;35.0750;9.5526;29.3166;
910061082100089;35.2458;9.6990;29.1824;
910061092100089;35.2702;9.8332;29.1092;
910061102100089;35.1116;9.8820;29.2922;
910061112100089;35.0994;9.9552;29.4142;
910061122100089;35.1116;10.0040;29.4752;
910061132100089;35.1848;10.1138;29.4264;
910061142100089;35.2580;10.2114;29.4264;
910061152100089;35.3678;10.2968;29.3532;
910061162100089;35.4654;10.3700;29.3166;
910061172100089;35.6118;10.4066;29.2434;
910061182100089;35.9656;10.4798;29.0238;
910061192100089;36.1364;10.5408;28.8774;
910061202100089;36.2828;10.6506;28.8530;
910061212100089;36.3072;10.7238;28.8652;
910061222100089;36.2828;10.7604;28.8774;
910061232100089;36.3194;10.7848;28.9628;
910061242100089;36.2218;10.8092;29.0726;
910061252100089;36.1730;10.8458;29.1946;
910061262100089;36.0388;10.8946;29.4630;
910061272100089;36.1120;10.9556;29.4020;
910061282100089;36.2340;10.9556;29.2678;
910061292100089;36.4048;11.0044;29.1336;
910061302100089;36.6366;11.0166;28.9506;
910061312100089;36.7830;11.0410;28.8042;
910061322100089;36.8928;11.0532;28.7066;
910061332100089;36.9660;11.0776;28.6700;
910061342100089;37.1002;11.0776;28.4626;
910061352100089;37.0880;11.0410;28.5236;
910061362100089;37.0880;11.0288;28.5846;
910061372100089;36.9538;10.9800;28.8164;
910061382100089;36.7586;10.9312;29.1336;
910061392100089;36.6000;10.8824;29.3288;
910061402100089;36.5512;10.8702;29.4508;
910061412100089;36.4292;10.8458;29.6460;
910061422100089;36.2340;10.8214;29.9266;
910061432100089;36.0388;10.8214;30.1218;
910061442100089;35.9290;10.7848;30.2072;
910061452100089;35.9412;10.6994;30.1950;
910061462100089;36.0998;10.6994;29.9998;
910061472100089;36.2096;10.6506;29.8534;
910061482100089;36.3438;10.5896;29.7680;
910061492100089;36.5512;10.4920;29.5240;
910061502100089;36.9050;10.3822;29.1336;
910061512100089;37.1856;10.3212;28.8286;
910061522100089;37.2710;10.2114;28.7676;
910061532100089;37.3930;10.1504;28.7310;
910061542100089;37.5028;10.0650;28.6090;
910061552100089;37.7102;10.0406;28.4626;
910061562100089;37.8078;9.9308;28.2918;
910061572100089;37.8322;9.8942;28.3040;
910061582100089;37.7468;9.8698;28.4504;
910061592100089;37.7102;9.7844;28.5114;
910061602100089;37.7468;9.7600;28.4870;
910061612100089;37.7102;9.7234;28.3894;
910061622100089;37.6126;9.6502;28.4138;
910061632100089;37.4540;9.5160;28.5846;
910061642100089;37.3320;9.4672;28.7554;
910061652100089;37.1734;9.4062;28.8530;
910061662100089;37.0148;9.3086;29.0116;
910061672100089;36.7830;9.2232;29.2068;
910061682100089;36.6610;9.1744;29.3776;
910061692100089;36.4658;9.1012;29.6094;
910061702100089;36.1730;9.0646;29.9022;
910061712100089;35.8680;9.0280;30.2194;
910061722100089;35.7826;8.9792;30.2072;
910061732100089;35.7826;8.9426;30.1950;
910061742100089;35.8802;8.8938;30.0608;
910061752100089;35.9778;8.8328;29.9632;
910061762100089;35.9900;8.7352;29.8534;
910061772100089;36.0998;8.6498;29.7070;
910061782100089;36.1852;8.5400;29.6460;
910061792100089;36.2950;8.4424;29.4020;
910061802100089;36.1974;8.3326;29.4996;
910061812100089;36.2584;8.2228;29.2800;
910061822100089;36.2096;8.1252;29.1580;
910061832100089;36.3194;8.0642;28.9140;
910061842100089;36.3804;7.9788;28.7432;
910061852100089;36.4170;7.9300;28.6578;
910061862100089;36.6122;7.8324;28.4016;
910061872100089;36.7708;7.7836;28.2186;
910061882100089;36.9660;7.6982;28.0234;
910061892100089;37.0026;7.5884;28.0234;
910061902100089;36.9294;7.5152;28.1332;
910061912100089;36.7708;7.3566;28.3650;
910061922100089;36.6610;7.2590;28.5236;
910061932100089;36.6122;7.1614;28.5480;
910061942100089;36.5878;7.0760;28.5480;
910061952100089;36.5390;6.9662;28.5602;
910061962100089;36.5634;6.8564;28.5358;
910061972100089;36.4902;6.7710;28.6212;
910061982100089;36.7220;6.6978;28.3650;
910061992100089;36.7830;6.6856;28.2674;
910062002100089;36.8440;6.6124;28.2186;
910062012100089;36.7952;6.5514;28.2430;
910062022100089;36.6732;6.4782;28.3040;
910062032100089;36.4536;6.3806;28.4992;
910062042100089;36.1730;6.3440;28.7066;
910062052100089;36.0266;6.3074;28.8286;
910062062100089;35.7338;6.2586;29.1214;
910062072100089;35.5508;6.1732;29.2922;
910062082100089;35.4044;6.1000;29.4020;
910062092100089;35.2336;6.0268;29.5606;
910062102100089;35.1848;5.9780;29.7314;
910062112100089;35.2336;5.9902;29.6704;
910062122100089;35.3190;5.9658;29.5484;
910062132100089;35.5020;5.9414;29.3898;
910062142100089;35.5630;5.9048;29.2800;
910062152100089;35.7094;5.9048;29.2190;
910062162100089;35.7948;5.9292;29.0970;
910062172100089;35.9656;5.9536;28.8774;
910062182100089;36.0754;6.0024;28.7310;
910062192100089;36.1974;6.0024;28.6334;
910062202100089;36.3316;6.0146;28.5846;
910062212100089;36.4170;6.0634;28.4504;
910062222100089;36.5512;6.0634;28.4138;
910062232100089;36.6488;6.1000;28.3040;
910062242100089;36.6488;6.0878;28.3406;
910062252100089;36.6732;6.0878;28.3894;
910062262100089;36.6732;6.0756;28.4016;
910062272100089;36.6976;6.0878;28.4260;
910062282100089;36.7464;6.1244;28.3772;
910062292100089;36.6488;6.0634;28.4992;
910062302100089;36.6366;6.1122;28.5724;
910062312100089;36.6610;6.1732;28.5114;
910062322100089;36.8318;6.2220;28.3650;
910062332100089;36.9050;6.2220;28.3772;
910062342100089;36.9172;6.2464;28.3162;
910062352100089;36.9050;6.2586;28.2918;
910062362100089;36.8562;6.2342;28.3772;
910062372100089;36.8684;6.2708;28.4382;
910062382100089;36.8684;6.2464;28.4382;
910062392100089;36.8440;6.1488;28.4748;
910062402100089;36.6732;6.1244;28.6578;
910062412100089;36.6976;6.0878;28.5724;
910062422100089;36.7586;6.0634;28.4626;
910062432100089;36.7220;6.0146;28.5236;
910062442100089;36.6488;5.9902;28.5602;
910062452100089;36.7098;6.0146;28.4992;
910062462100089;36.7586;6.0024;28.4016;
910062472100089;36.6854;6.0390;28.5114;
910062482100089;36.7952;6.0756;28.4382;
910062492100089;36.7952;6.1244;28.4382;
910062502100089;36.8684;6.1610;28.4382;
910062512100089;36.9050;6.1854;28.4382;
910062522100089;37.0148;6.2220;28.3528;
910062532100089;37.0148;6.2342;28.4138;
910062542100089;37.1002;6.3074;28.3772;
910062552100089;37.0880;6.3318;28.3650;
910062562100089;37.1490;6.3562;28.3040;
910062572100089;37.1856;6.3684;28.2918;
910062582100089;37.0392;6.4172;28.4626;
910062592100089;37.0636;6.4660;28.4382;
910062602100089;36.9782;6.4904;28.4748;
910062612100089;36.9660;6.5392;28.4870;
910062622100089;36.6854;6.5392;28.7676;
910062632100089;36.5878;6.5270;28.9018;
910062642100089;36.5024;6.5758;28.9628;
910062652100089;36.4536;6.6124;28.9750;
910062662100089;36.5390;6.6246;28.8774;
910062672100089;36.6366;6.6856;28.7066;
910062682100089;36.7586;6.7710;28.4870;
910062692100089;36.8684;6.7954;28.2796;
910062702100089;37.1490;6.8686;27.8892;
910062712100089;37.4174;6.9662;27.4988;
910062722100089;37.5882;7.0516;27.3158;
910062732100089;37.6370;7.1492;27.3280;
910062742100089;37.6248;7.2712;27.3646;
910062752100089;37.6248;7.3444;27.4866;
910062762100089;37.6492;7.4298;27.5720;
910062772100089;37.7712;7.5762;27.4622;
910062782100089;37.8078;7.7348;27.5110;
910062792100089;37.8444;7.8812;27.5598;
910062802100089;37.7346;8.0032;27.6696;
910062812100089;37.7102;8.1252;27.6330;
910062822100089;37.8078;8.2228;27.5598;
910062832100089;37.9298;8.3692;27.4256;
910062842100089;38.0152;8.5156;27.3280;
910062852100089;37.9664;8.6742;27.4256;
910062862100089;37.9420;8.7840;27.4134;
910062872100089;38.0030;8.9548;27.3646;
910062882100089;38.1128;9.1378;27.2914;
910062892100089;38.2836;9.2720;27.1206;
910062902100089;38.2714;9.5038;27.0596;
910062912100089;38.1372;9.6502;27.1206;
910062922100089;38.0152;9.8454;27.3280;
910062932100089;37.9420;9.9796;27.4500;
910062942100089;37.8932;10.1382;27.5720;
910062952100089;37.7956;10.2114;27.7916;
910062962100089;37.7224;10.2724;27.8770;
910062972100089;37.5150;10.4066;28.1698;
910062982100089;37.4418;10.5042;28.3284;
910062992100089;37.4540;10.6628;28.4626;
910063002100089;37.5394;10.7360;28.3894;
910063012100089;37.4662;10.8458;28.4992;
910063022100089;37.3442;10.9556;28.7066;
910063032100089;37.3198;11.1142;28.6944;
910063042100089;37.2222;11.2606;28.8164;
910063052100089;37.1368;11.3582;28.9628;
910063062100089;37.0392;11.3826;29.0970;
910063072100089;36.9782;11.4192;29.0970;
910063082100089;36.9416;11.4924;29.1702;
910063092100089;37.0270;11.5534;28.9750;
910063102100089;37.2832;11.6144;28.6822;
910063112100089;37.3808;11.6144;28.5846;
910063122100089;37.5028;11.6510;28.4626;
910063132100089;37.6858;11.6754;28.2308;
910063142100089;37.8078;11.7242;28.0600;
910063152100089;37.7956;11.7608;28.0722;
910063162100089;37.6736;11.7120;28.2430;
910063172100089;37.4906;11.6876;28.5358;
910063182100089;37.2954;11.6510;28.7798;
910063192100089;37.1978;11.6632;28.7920;
910063202100089;36.9172;11.5900;29.1824;
910063212100089;36.7830;11.5290;29.3654;
910063222100089;36.6366;11.4802;29.5972;
910063232100089;36.6000;11.3460;29.7680;
910063242100089;36.6244;11.3094;29.6704;
910063252100089;36.6122;11.1996;29.7558;
910063262100089;36.6244;11.0898;29.8290;
910063272100089;36.5634;10.9800;30.0608;
910063282100089;36.7220;10.8580;29.9754;
910063292100089;36.7220;10.7604;30.0486;
910063302100089;36.6488;10.6140;30.1584;
910063312100089;36.6488;10.5530;30.1828;
910063322100089;36.7220;10.4066;30.1950;
910063332100089;36.8074;10.3212;30.1340;
910063342100089;36.8684;10.1382;30.1096;
910063352100089;36.9172;10.0162;30.1096;
910063362100089;37.0026;9.9186;29.9632;
910063372100089;37.1124;9.8088;29.7314;
910063382100089;37.3076;9.7478;29.5362;
910063392100089;37.5150;9.6258;29.2800;
910063402100089;37.5760;9.5404;29.1946;
910063412100089;37.6858;9.4428;28.9994;
910063422100089;37.7468;9.3940;28.7920;
910063432100089;37.8200;9.3086;28.5846;
910063442100089;37.8444;9.2232;28.5236;
910063452100089;37.8200;9.1378;28.5602;
910063462100089;37.7346;9.0524;28.5602;
910063472100089;37.6248;8.9914;28.7310;
910063482100089;37.6248;8.9548;28.6944;
910063492100089;37.5760;8.9304;28.7432;
910063502100089;37.4662;8.8816;28.8896;
910063512100089;37.2832;8.8084;29.1336;
910063522100089;37.1734;8.7718;29.2678;
910063532100089;37.1612;8.7596;29.3044;
910063542100089;37.3442;8.7230;29.1336;
910063552100089;37.5150;8.6864;28.8774;
910063562100089;37.4784;8.6376;28.9262;
910063572100089;37.3686;8.5522;29.0848;
910063582100089;37.3564;8.5278;29.0970;
910063592100089;37.4296;8.5156;29.0482;
910063602100089;37.3320;8.4668;29.1946;
910063612100089;36.8928;8.3814;29.7070;
910063622100089;36.7464;8.3570;29.8778;
910063632100089;36.5268;8.3204;30.1462;
910063642100089;36.5024;8.2838;30.1950;
910063652100089;36.5512;8.2472;30.1218;
910063662100089;36.4780;8.1618;30.1462;
910063672100089;36.3926;8.1008;30.2316;
910063682100089;36.3926;8.1130;30.1950;
910063692100089;36.7342;8.0764;29.8412;
910063702100089;36.6610;8.0032;29.9266;
910063712100089;36.5390;7.9300;30.0120;
910063722100089;36.2828;7.8324;30.2926;
910063732100089;36.0876;7.7226;30.5244;
910063742100089;36.0266;7.6738;30.6098;
910063752100089;36.0632;7.6006;30.6220;
910063762100089;36.1608;7.5030;30.4634;
910063772100089;36.2462;7.4176;30.3170;
910063782100089;36.3194;7.3322;30.2560;
910063792100089;36.4170;7.2224;30.1340;
910063802100089;36.5512;7.1858;29.9998;
910063812100089;36.7098;7.1614;29.7924;
910063822100089;36.7586;7.0516;29.7802;
910063832100089;36.8440;6.9906;29.6704;
910063842100089;36.8196;6.8564;29.7070;
910063852100089;36.8196;6.7832;29.7192;
910063862100089;36.8318;6.6734;29.7436;
910063872100089;36.7830;6.5392;29.7558;
910063882100089;36.9050;6.4172;29.5972;
910063892100089;36.8684;6.2830;29.6094;
910063902100089;36.9416;6.1732;29.5972;
910063912100089;36.8562;6.0146;29.7436;
910063922100089;36.8318;5.9170;29.7802;
910063932100089;36.7098;5.7584;29.9388;
910063942100089;36.5756;5.6364;29.9754;
910063952100089;36.5268;5.5632;30.0730;
910063962100089;36.3926;5.4778;30.2194;
910063972100089;36.3560;5.3802;30.1950;
910063982100089;36.4048;5.3070;30.2072;
910063992100089;36.4048;5.2216;30.1096;
910064002100089;36.3804;5.1362;30.1096;
910064012100089;36.4292;5.0752;29.9754;
910064022100089;36.5390;5.0386;29.9022;
910064032100089;36.7342;5.0264;29.7070;
910064042100089;36.8684;4.9654;29.5728;
910064052100089;37.0270;4.9532;29.4752;
910064062100089;37.0392;4.9654;29.3410;
910064072100089;37.1002;4.9898;29.2922;
910064082100089;37.1124;5.0020;29.3288;
910064092100089;37.1368;5.0630;29.3776;
910064102100089;37.1124;4.9898;29.3898;
910064112100089;36.9172;5.0020;29.5728;
910064122100089;36.6610;5.0630;29.7802;
910064132100089;36.4414;5.0874;29.9754;
910064142100089;36.3438;5.1118;30.1218;
910064152100089;36.2096;5.1606;30.2438;
910064162100089;36.2218;5.2582;30.3536;
910064172100089;36.1486;5.3192;30.4146;
910064182100089;36.1730;5.4778;30.4634;
910064192100089;36.1730;5.5510;30.4390;
910064202100089;36.2828;5.5998;30.3536;
910064212100089;36.3560;5.7096;30.2804;
910064222100089;36.3194;5.8194;30.2560;
910064232100089;36.2828;5.9048;30.2316;
910064242100089;36.1730;5.9658;30.2072;
910064252100089;36.0632;6.0512;30.3414;
910064262100089;35.9168;6.1122;30.4146;
910064272100089;35.9046;6.1976;30.3902;
910064282100089;35.8558;6.2830;30.3536;
910064292100089;35.7826;6.3684;30.3414;
910064302100089;35.7338;6.4050;30.3170;
910064312100089;35.8192;6.5026;30.1828;
910064322100089;35.8436;6.5514;30.0852;
910064332100089;35.9290;6.6368;29.9510;
910064342100089;35.8802;6.6856;29.9510;
910064352100089;35.6240;6.7466;30.1706;
910064362100089;35.4532;6.7832;30.3170;
910064372100089;35.3068;6.7710;30.4268;
910064382100089;35.0262;6.7954;30.6830;
910064392100089;34.7212;6.8076;30.9270;
910064402100089;34.4894;6.8198;31.0978;
910064412100089;34.2698;6.7588;31.1588;
910064422100089;34.1356;6.7344;31.1466;
910064432100089;34.1966;6.6368;30.9392;
910064442100089;34.2454;6.6124;30.7074;
910064452100089;34.3308;6.6246;30.4756;
910064462100089;34.4040;6.5636;30.2194;
910064472100089;34.3552;6.5148;30.1462;
910064482100089;34.3186;6.4782;30.0364;
910064492100089;34.2820;6.4538;30.0242;
910064502100089;34.2698;6.4782;30.0242;
910064512100089;34.1356;6.5270;30.1218;
910064522100089;33.8794;6.5026;30.3780;
910064532100089;33.5988;6.4538;30.6220;
910064542100089;33.4402;6.4904;30.7074;
910064552100089;33.4768;6.4782;30.6464;
910064562100089;33.4402;6.4904;30.6342;
910064572100089;33.4158;6.5026;30.5366;
910064582100089;33.4158;6.5026;30.4390;
910064592100089;33.4646;6.4660;30.2682;
910064602100089;33.6720;6.4782;29.9876;
910064612100089;33.9038;6.5026;29.5972;
910064622100089;34.0746;6.4782;29.4020;
910064632100089;34.1722;6.5026;29.1336;
910064642100089;34.2942;6.5270;28.9262;
910064652100089;34.5016;6.5514;28.7066;
910064662100089;34.6236;6.5636;28.5236;
910064672100089;34.6724;6.6124;28.4016;
910064682100089;34.7578;6.6612;28.3406;
910064692100089;34.7334;6.6734;28.3528;
910064702100089;34.7700;6.7344;28.3162;
910064712100089;34.7944;6.7954;28.4016;
910064722100089;34.7944;6.8564;28.4016;
910064732100089;34.7700;6.8686;28.4504;
910064742100089;34.7822;6.9662;28.3650;
910064752100089;34.8554;7.0394;28.3406;
910064762100089;34.8432;7.1126;28.2796;
910064772100089;34.9530;7.1858;28.1698;
910064782100089;34.9896;7.2468;28.1576;
910064792100089;35.0872;7.3078;28.0478;
910064802100089;35.0994;7.3566;28.0356;
910064812100089;35.0994;7.4908;28.0356;
910064822100089;35.0994;7.5396;28.0478;
910064832100089;35.1482;7.6250;28.1210;
910064842100089;35.0628;7.7104;28.2064;
910064852100089;35.0140;7.8080;28.3650;
910064862100089;35.0994;7.9300;28.3528;
910064872100089;34.9164;8.0276;28.5602;
910064882100089;34.9408;8.1252;28.7188;
910064892100089;34.7578;8.1740;28.9384;
910064902100089;34.5382;8.2594;29.3410;
910064912099597;34.3064;8.3204;29.7436;
910064922099597;34.1112;8.4180;30.1462;
910064932099597;33.9160;8.5156;30.4512;
910064942099597;33.8550;8.5766;30.5610;
910064952099597;33.9404;8.6742;30.5732;
910064962099597;34.0258;8.7718;30.4878;
910064972099597;34.3064;8.8816;30.2438;
910064982099597;34.5626;8.9426;30.0852;
910064992099597;34.8920;9.0524;29.6826;
910065002099597;35.2702;9.1744;29.3166;
910065012099597;35.5386;9.2476;29.1580;
910065022099597;35.5630;9.3818;29.2190;
910065032099597;35.5264;9.4184;29.3776;
910065042099597;35.5142;9.4428;29.4508;
910065052099597;35.4898;9.5038;29.5484;
910065062099597;35.5508;9.5648;29.4630;
910065072099597;35.5020;9.5404;29.5728;
910065082099597;35.4166;9.5038;29.6704;
910065092099597;35.3678;9.5160;29.7558;
910065102099597;35.3800;9.5038;29.8046;
910065112099597;35.5020;9.5160;29.5972;
910065122099597;35.5386;9.5648;29.5850;
910065132099597;35.4898;9.5282;29.7436;
910065142099597;35.5508;9.5404;29.8412;
910065152099597;35.4898;9.5770;29.9266;
910065162099597;35.4776;9.5770;29.9754;
910065172099597;35.4410;9.5282;30.0364;
910065182099597;35.5142;9.4672;29.9754;
910065192099597;35.3922;9.4672;30.1950;
910065202099597;35.4776;9.4550;30.1340;
910065212099597;35.5508;9.4550;30.0242;
910065222099597;35.7094;9.4794;29.7192;
910065232099597;35.9168;9.4794;29.4752;
910065242099597;36.1730;9.5038;29.1580;
910065252099597;36.4414;9.5892;28.7798;
910065262099597;36.5634;9.6380;28.5968;
910065272099597;36.7586;9.6746;28.3650;
910065282099597;36.8440;9.6990;28.2796;
910065292099597;36.9782;9.7600;28.1088;
910065302099597;36.8196;9.7356;28.3040;
910065312099597;36.7952;9.7356;28.3040;
910065322099597;36.6122;9.7478;28.5114;
910065332099597;36.4780;9.7234;28.6700;
910065342099597;36.3560;9.7844;28.7676;
910065352099597;36.5268;9.8210;28.5846;
910065362099597;36.5634;9.8820;28.4626;
910065372099597;36.5634;9.8820;28.3772;
910065382099597;36.6122;9.9430;28.2552;
910065392099597;36.4414;10.0040;28.2796;
910065402099597;36.5146;10.0772;28.1576;
910065412099597;36.4292;10.1138;28.1332;
910065422099597;36.3438;10.1260;28.0600;
910065432099597;36.1364;10.1382;28.1820;
910065442099597;35.8924;10.1138;28.4016;
910065452099597;35.7582;10.1382;28.4748;
910065462099597;35.6240;10.1504;28.5480;
910065472099597;35.6240;10.1992;28.6212;
910065482099597;35.5508;10.2236;28.7066;
910065492099597;35.4288;10.2236;28.7920;
910065502099597;35.3190;10.1992;29.0116;
910065512099597;35.1238;10.2236;29.2434;
910065522099597;35.0506;10.2602;29.2190;
910065532099597;34.9408;10.3090;29.3898;
910065542099597;34.8676;10.3090;29.4508;
910065552099597;34.8554;10.2846;29.5240;
910065562099597;34.7578;10.2602;29.5118;
910065572099597;34.8310;10.2846;29.3898;
910065582099597;35.0140;10.2846;29.1458;
910065592099597;34.9896;10.2724;29.0116;
910065602099597;34.9408;10.2236;29.1214;
910065612099597;34.8554;10.1992;29.1580;
910065622099597;34.8920;10.1260;29.0604;
910065632099597;34.9530;10.1138;28.9018;
910065642099597;35.0872;10.0772;28.7554;
910065652099597;35.0262;10.0772;28.8652;
910065662099597;34.8920;10.0650;28.8774;
910065672099597;34.9896;10.0528;28.8042;
910065682099597;35.1604;10.0894;28.5358;
910065692099597;35.3068;10.0406;28.3284;
910065702099597;35.3922;10.0772;28.2552;
910065712099597;35.3556;10.0528;28.1942;
910065722099597;35.3556;10.0406;28.1454;
910065732099597;35.4044;9.9796;28.0356;
910065742099597;35.5996;9.9308;27.8648;
910065752099597;35.7216;9.8698;27.6574;
910065762099597;35.7338;9.8088;27.6696;
910065772099597;35.7094;9.8088;27.7306;
910065782099597;35.7094;9.7600;27.7550;
910065792099597;35.7948;9.7478;27.7184;
910065802099597;35.8802;9.7600;27.5964;
910065812099597;35.9778;9.7600;27.4744;
910065822099597;35.8924;9.7966;27.5476;
910065832099597;35.9412;9.7966;27.5964;
910065842099597;35.9656;9.7844;27.5720;
910065852099597;36.0022;9.7112;27.4988;
910065862099597;36.0022;9.7478;27.5354;
910065872099597;36.0022;9.7478;27.5110;
910065882099597;35.9412;9.7356;27.6940;
910065892099597;36.0266;9.7356;27.6452;
910065902099597;36.1120;9.7356;27.5842;
910065912099597;36.1608;9.7600;27.5354;
910065922099597;36.2706;9.7600;27.4500;
910065932099597;36.1974;9.7722;27.6574;
910065942099597;36.1730;9.7600;27.7306;
910065952099597;36.0632;9.7600;27.9868;
910065962099597;36.0022;9.7600;28.1332;
910065972099597;35.7948;9.7478;28.4870;
910065982099597;35.7338;9.7112;28.7066;
910065992099597;35.5874;9.7112;29.0482;
910066002099597;35.4532;9.7356;29.2922;
910066012099597;35.5508;9.7356;29.3044;
910066022099597;35.5874;9.7234;29.4142;
910066032099597;35.7704;9.7112;29.4142;
910066042099597;35.8070;9.6990;29.4386;
910066052099597;35.9412;9.6990;29.4508;
910066062099597;35.9534;9.7478;29.5606;
910066072099597;36.1364;9.6746;29.4142;
910066082099597;36.2218;9.6136;29.4386;
910066092099597;36.3560;9.6136;29.3166;
910066102099597;36.5146;9.6014;29.1946;
910066112099597;36.5634;9.5526;29.1336;
910066122099597;36.6976;9.5160;29.0604;
910066132099597;36.9050;9.4672;28.7798;
910066142099597;37.1002;9.3940;28.6090;
910066152099597;37.1490;9.3574;28.6090;
910066162099597;37.1490;9.3086;28.6578;
910066172099597;37.0758;9.2232;28.7920;
910066182099597;36.9416;9.1622;28.9506;
910066192099597;36.9416;9.1134;28.9262;
910066202099597;37.0514;9.0646;28.8286;
910066212099597;37.1368;9.0280;28.8530;
910066222099597;37.1246;8.9792;28.8896;
910066232099597;37.1856;8.9670;28.7920;
910066242099597;37.3198;8.9182;28.6700;
910066252099597;37.4296;8.9182;28.5480;
910066262099597;37.7224;8.8816;28.1698;
910066272099597;37.8566;8.8694;27.9746;
910066282099597;37.9054;8.8084;27.8892;
910066292099597;37.8078;8.7352;27.8770;
910066302099597;37.9298;8.7108;27.8526;
910066312099597;37.9420;8.6620;27.9746;
910066322099597;37.9786;8.5888;27.9136;
910066332099597;38.0030;8.5400;27.8526;
910066342099597;37.8810;8.4790;28.0722;
910066352099597;37.7956;8.3814;28.2796;
910066362099597;37.7712;8.3204;28.4260;
910066372099597;37.7834;8.3448;28.5114;
910066382099597;37.6004;8.2960;28.7310;
910066392099597;37.4662;8.1862;28.7310;
910066402099597;37.2832;8.1740;28.8042;
910066412099597;37.2222;8.1252;28.9994;
910066422099597;37.0636;8.0886;29.1458;
910066432099597;36.9416;8.0520;29.2556;
910066442099597;36.7830;8.0154;29.4020;
910066452099597;36.5756;7.9178;29.6582;
910066462099597;36.4414;7.8568;29.7680;
910066472099597;36.4292;7.8080;29.8290;
910066482099597;36.5146;7.7592;29.9388;
910066492099597;36.4536;7.7226;29.8656;
910066502099597;36.4048;7.6616;29.9022;
910066512099597;36.5390;7.6128;29.7680;
910066522099597;36.6122;7.5762;29.6460;
910066532099597;36.7342;7.5030;29.5362;
910066542099597;36.9904;7.4298;29.1946;
910066552099597;37.1368;7.4176;29.0482;
910066562099597;37.2710;7.3322;28.8652;
910066572099597;37.4296;7.2590;28.7188;
910066582099597;37.7590;7.1858;28.3772;
910066592099597;37.9176;7.0760;28.2064;
910066602099597;37.9786;7.0150;28.2186;
910066612099597;38.0762;6.9296;28.0722;
910066622099597;38.0640;6.8198;28.1088;
910066632099597;38.0396;6.7222;28.2674;
910066642099597;37.8688;6.6490;28.4992;
910066652099597;37.7712;6.6002;28.7432;
910066662099597;37.5150;6.5514;29.0848;
910066672099597;37.1978;6.5270;29.4996;
910066682099597;37.1124;6.4782;29.4996;
910066692099597;37.0636;6.4660;29.4386;
910066702099597;37.1612;6.5392;29.2678;
910066712099597;37.1368;6.5392;29.1336;
910066722099597;37.2588;6.5880;28.8042;
910066732099597;37.2588;6.6124;28.6334;
910066742099597;37.3686;6.6368;28.3894;
910066752099597;37.5150;6.6612;28.0722;
910066762099597;37.6736;6.7100;27.8892;
910066772099597;37.7346;6.7344;27.9014;
910066782099597;37.7346;6.7466;27.8648;
910066792099597;37.8444;6.8076;27.7062;
910066802099597;37.8566;6.8442;27.7306;
910066812099597;37.9176;6.8442;27.6940;
910066822099597;37.8322;6.9052;27.7184;
910066832099597;37.8810;7.0028;27.7306;
910066842099597;37.7468;7.0638;27.8282;
910066852099597;37.7224;7.1980;27.8526;
910066862099597;37.5272;7.2224;28.1088;
910066872099597;37.3320;7.3200;28.3284;
910066882099597;37.2222;7.3932;28.5602;
910066892099597;37.2222;7.5152;28.5724;
910066902099597;37.1978;7.6006;28.5724;
910066912099597;37.1002;7.6616;28.5968;
910066922099597;37.0880;7.6860;28.6334;
910066932099597;37.0880;7.7104;28.6822;
910066942099597;37.1368;7.7226;28.6578;
910066952099597;37.2100;7.7348;28.6578;
910066962099597;37.2222;7.7958;28.4992;
910066972099597;37.0514;7.8812;28.6212;
910066982099597;37.0392;7.9666;28.6944;
910066992099597;37.0026;8.0520;28.7066;
910067002099597;37.0148;8.1130;28.7310;
910067012099597;37.0392;8.2228;28.6090;
910067022099597;36.9660;8.3814;28.5480;
910067032099597;36.9172;8.4668;28.4748;
910067042099597;36.9294;8.5644;28.4260;
910067052099597;36.8562;8.6010;28.4992;
910067062099597;36.7708;8.6132;28.5480;
910067072099597;36.6244;8.6864;28.7310;
910067082099597;36.4414;8.7596;28.8042;
910067092099597;36.2340;8.7718;28.8652;
910067102099597;36.1120;8.8084;28.9384;
910067112099597;36.0022;8.8328;28.9994;
910067122099597;35.8924;8.8450;29.0482;
910067132099597;36.0998;8.8572;28.7676;
910067142099597;36.2584;8.9060;28.4260;
910067152099597;36.4902;8.8938;28.0356;
910067162099597;36.6244;8.9548;27.8282;
910067172099597;36.6610;8.9670;27.7428;
910067182099597;36.8684;8.9670;27.5354;
910067192099597;36.9172;8.9914;27.3768;
910067202099597;36.8928;8.9426;27.3402;
910067212099597;36.9660;8.9914;27.1816;
910067222099597;36.9294;8.9792;27.2670;
910067232099597;36.9050;8.9914;27.2792;
910067242099597;36.9294;8.9792;27.1816;
910067252099597;37.0636;8.9426;27.1084;
910067262099597;37.0026;8.9670;27.1816;
910067272099597;37.0514;8.9914;27.0962;
910067282099597;37.1612;9.0402;27.0474;
910067292099597;37.0026;9.0158;27.1206;
910067302099597;36.9416;9.0402;27.1572;
910067312099597;36.9416;9.0280;27.2670;
910067322099597;36.9172;9.0158;27.3036;
910067332099597;36.8928;9.0524;27.3646;
910067342099597;36.8196;9.0524;27.3646;
910067352099597;36.7952;9.0402;27.4744;
910067362099597;36.7098;9.0646;27.5232;
910067372099597;36.6366;9.0524;27.6208;
910067382099597;36.6366;9.0280;27.6330;
910067392099597;36.3926;9.0158;27.7794;
910067402099597;36.1730;9.0036;28.0722;
910067412099597;35.9534;8.9914;28.1942;
910067422099597;35.8192;8.9548;28.2308;
910067432099597;35.6728;8.9426;28.3650;
910067442099597;35.4532;8.9304;28.6090;
910067452099597;35.2214;8.9304;28.8652;
910067462099597;34.9652;8.8938;29.0360;
910067472099597;34.9774;8.9426;29.0238;
910067482099597;34.8676;9.0036;29.1458;
910067492099597;34.9042;9.0402;29.1824;
910067502099597;34.9042;9.1378;29.2190;
910067512099597;34.8432;9.1378;29.2556;
910067522099597;34.8676;9.1866;29.1824;
910067532099597;34.9042;9.2110;29.0970;
910067542099597;34.9530;9.2842;29.0970;
910067552099597;34.9286;9.3086;29.1580;
910067562099597;34.9774;9.3330;28.9872;
910067572099597;34.8310;9.3452;29.0360;
910067582099597;34.7700;9.3574;29.0848;
910067592099597;34.7212;9.4306;29.0726;
910067602099597;34.6236;9.4306;29.1702;
910067612099597;34.7090;9.4794;29.0238;
910067622099597;34.7456;9.5770;28.9018;
910067632099597;34.7456;9.6502;28.8042;
910067642099597;34.8432;9.6990;28.7310;
910067652099597;34.9286;9.7722;28.6334;
910067662099597;34.8798;9.8088;28.6090;
910067672099597;35.0262;9.8698;28.4504;
910067682099597;35.1726;9.9308;28.2308;
910067692099597;35.1848;9.9430;28.1820;
910067702099597;35.1726;9.9186;28.1942;
910067712099597;35.1848;9.9308;28.1454;
910067722099597;35.0994;9.9430;28.1088;
910067732099597;35.0872;9.9430;28.1454;
910067742099597;35.1116;9.9674;28.1210;
910067752099597;34.9042;9.9918;28.4382;
910067762099597;34.8188;10.0040;28.6090;
910067772099597;34.7090;10.0406;28.7432;
910067782099597;34.6358;10.0772;28.9384;
910067792099597;34.5748;10.1138;29.0970;
910067802099597;34.5382;10.1626;29.2678;
910067812099597;34.4772;10.1992;29.3044;
910067822099597;34.4894;10.1992;29.3532;
910067832099597;34.4894;10.1748;29.3654;
910067842099597;34.4406;10.1626;29.4264;
910067852099597;34.4894;10.1626;29.4996;
910067862099597;34.6114;10.1748;29.3898;
910067872099597;34.7456;10.1748;29.2556;
910067882099597;34.8554;10.1382;29.2434;
910067892099597;35.0384;10.1138;29.1092;
910067902099597;35.2702;10.1382;28.9872;
910067912099597;35.6118;10.1382;28.5724;
910067922099597;35.9656;10.1016;28.1698;
910067932099597;36.1974;10.0894;27.8770;
910067942099597;36.3682;10.0528;27.7062;
910067952099597;36.5390;10.0040;27.6574;
910067962099597;36.6366;9.9796;27.5354;
910067972099597;36.5024;9.9186;27.7062;
910067982099597;36.3682;9.8698;27.8892;
910067992099597;36.3072;9.8576;27.9868;
910068002099597;36.1730;9.8210;28.2674;
910068012099597;36.0510;9.7966;28.5358;
910068022099597;35.8314;9.7112;28.8164;
910068032099597;35.6850;9.6746;29.0848;
910068042099597;35.6484;9.6014;29.1702;
910068052099597;35.7826;9.5770;29.1336;
910068062099597;35.8558;9.5526;29.0726;
910068072099597;35.7704;9.4794;29.3410;
910068082099597;35.8924;9.4672;29.2678;
910068092099597;36.0998;9.4184;29.0482;
910068102099597;36.3682;9.4428;28.8042;
910068112099597;36.4902;9.4184;28.5968;
910068122099597;36.5146;9.4184;28.5480;
910068132099597;36.5512;9.4062;28.4870;
910068142099597;36.6000;9.4062;28.4626;
910068152099597;36.7098;9.4306;28.3040;
910068162099597;36.7220;9.4428;28.2796;
910068172099597;36.6488;9.4550;28.3528;
910068182099597;36.5024;9.4550;28.5114;
910068192099597;36.4292;9.4550;28.5968;
910068202099597;36.4170;9.4794;28.6944;
910068212099597;36.3804;9.5038;28.7188;
910068222099597;36.3804;9.4428;28.6212;
910068232099597;36.4536;9.4062;28.4138;
910068242099597;36.5756;9.4550;28.2430;
910068252099597;36.6732;9.4184;28.1088;
910068262099597;36.7952;9.3818;27.9014;
910068272099597;36.9050;9.3696;27.6818;
910068282099597;36.9660;9.3696;27.4988;
910068292099597;37.0514;9.3696;27.3646;
910068302099597;37.0148;9.4062;27.3646;
910068312099597;36.9416;9.4184;27.4378;
910068322099597;36.6610;9.3696;27.6330;
910068332099597;36.3438;9.3696;27.9258;
910068342099597;36.0998;9.4306;28.1698;
910068352099597;35.9046;9.4794;28.4382;
910068362099597;35.7338;9.4916;28.5114;
910068372099597;35.6118;9.5038;28.6212;
910068382099597;35.5508;9.5282;28.5480;
910068392099597;35.3922;9.5160;28.5846;
910068402099597;35.3556;9.5282;28.5968;
910068412099597;35.4044;9.5648;28.3894;
910068422099597;35.4654;9.5648;28.1332;
910068432099597;35.4898;9.5648;27.9380;
910068442099597;35.4898;9.6136;27.8648;
910068452099597;35.3678;9.6868;27.8404;
910068462099597;35.2214;9.7112;27.9746;
910068472099597;35.1116;9.7722;28.1088;
910068482099597;34.9896;9.8576;28.2064;
910068492099597;34.7456;9.8942;28.4626;
910068502099597;34.5992;9.9430;28.6090;
910068512099597;34.2698;9.9308;28.8652;
910068522099597;33.9770;9.9186;29.1336;
910068532099597;33.7452;9.8576;29.3776;
910068542099597;33.6476;9.8088;29.5240;
910068552099597;33.6720;9.7966;29.5118;
910068562099597;33.5012;9.7234;29.6704;
910068572099597;33.6964;9.6380;29.4996;
910068582099597;33.8306;9.5892;29.4142;
910068592099597;34.0380;9.5038;29.1946;
910068602099597;34.2698;9.4184;29.0360;
910068612099597;34.4406;9.3086;28.9262;
910068622099597;34.4894;9.2354;28.8408;
910068632099597;34.4284;9.0890;28.9018;
910068642099597;34.7700;8.9914;28.5114;
910068652099597;34.6114;8.8938;28.7432;
910068662099597;34.1844;8.6864;29.2190;
910068672099597;34.0868;8.5400;29.3898;
910068682099597;33.9526;8.3936;29.5240;
910068692099597;33.8428;8.2350;29.6094;
910068702099597;33.7574;8.1130;29.7314;
910068712099597;33.6476;7.9178;29.8656;
910068722099597;33.3304;7.7470;30.0486;
910068732099597;33.4646;7.5640;29.8656;
910068742099597;33.7330;7.4298;29.4508;
910068752099597;33.8916;7.2956;29.2434;
910068762099597;34.1722;7.1492;28.9506;
910068772099597;34.3918;7.0028;28.5968;
910068782099597;34.6480;6.8442;28.3162;
910068792099597;34.8676;6.6978;28.0112;
910068802099597;35.1848;6.5270;27.8648;
910068812099597;35.2702;6.3928;27.7550;
910068822099597;35.4532;6.2708;27.6208;
910068832099597;35.5996;6.1610;27.5232;
910068842099597;35.5752;6.0512;27.5354;
910068852099597;35.5264;5.9902;27.6574;
910068862099597;35.4532;5.9414;27.7550;
910068872099597;35.4166;5.9414;27.8648;
910068882099597;35.3434;5.9170;27.9868;
910068892099597;35.3312;5.9170;28.0234;
910068902099597;35.3800;5.9292;28.0112;
910068912099597;35.3556;5.9292;28.0478;
910068922099597;35.4044;6.0024;28.1332;
910068932099597;35.6118;6.0756;27.9502;
910068942099597;35.7460;6.0878;27.9380;
910068952099597;36.0266;6.1854;27.7916;
910068962099597;36.2584;6.3074;27.6086;
910068972099597;36.4780;6.3440;27.5354;
910068982099597;36.5268;6.4416;27.6696;
910068992099597;36.4780;6.5514;27.8404;
910069002099597;36.5390;6.6124;27.9258;
910069012099597;36.4780;6.6856;28.2186;
910069022099597;36.5512;6.8076;28.1576;
910069032099597;36.4536;6.8442;28.3284;
910069042099597;36.4048;6.9418;28.4748;
910069052099597;36.4292;7.0760;28.5724;
910069062099597;36.5024;7.2102;28.5236;
910069072099597;36.6366;7.2468;28.5236;
910069082099597;36.7342;7.3444;28.4382;
910069092099597;36.8440;7.4420;28.3040;
910069102099597;36.9660;7.4664;28.3284;
910069112099597;37.1246;7.5640;28.2430;
910069122099597;37.1124;7.6128;28.3162;
910069132099597;36.9538;7.7226;28.5846;
910069142099597;36.8562;7.7348;28.8408;
910069152099597;36.9050;7.8446;28.8408;
910069162099597;37.0148;7.9422;28.8408;
910069172099597;36.9904;8.0032;28.9994;
910069182099597;36.9416;8.1252;29.1580;
910069192099597;36.8318;8.1984;29.3288;
910069202099597;36.8928;8.2472;29.3654;
910069212099597;37.1124;8.3082;29.1214;
910069222099597;37.2710;8.3570;28.9018;
910069232099597;37.3198;8.3692;28.9384;
910069242099597;37.2710;8.4424;29.0726;
910069252099597;37.3320;8.4790;29.0848;
910069262099597;37.2832;8.5034;29.1702;
910069272099597;37.3198;8.5522;29.2556;
910069282099597;37.2588;8.5888;29.3532;
910069292099597;36.9416;8.6010;29.7314;
910069302099597;36.7342;8.6620;30.0974;
910069312099597;36.5878;8.7108;30.2316;
910069322099597;36.4658;8.6986;30.3780;
910069332099597;36.4536;8.7596;30.3780;
910069342099597;36.5390;8.7718;30.3048;
910069352099597;36.7220;8.7840;30.1462;
910069362099597;36.8562;8.8206;30.0730;
910069372099597;37.1490;8.8572;29.8412;
910069382099597;37.3442;8.8938;29.5850;
910069392099597;37.3808;8.8938;29.6216;
910069402099597;37.4174;8.8938;29.6338;
910069412099597;37.4052;8.8694;29.6948;
910069422099597;37.2710;8.8572;29.8656;
910069432099597;36.9660;8.8572;30.1706;
910069442099597;36.8074;8.8816;30.3414;
910069452099597;36.6854;8.8816;30.4390;
910069462099597;36.6122;8.8816;30.5732;
910069472099597;36.6000;8.9060;30.6098;
910069482099597;36.6610;8.9914;30.5732;
910069492099597;36.5512;9.0280;30.7318;
910069502099597;36.4902;9.0768;30.7684;
910069512099597;36.5146;9.1134;30.7928;
910069522099597;36.4170;9.1256;30.9636;
910069532099597;36.4170;9.1866;31.0734;
910069542099597;36.4780;9.2232;30.9880;
910069552099597;36.5146;9.2476;30.9636;
910069562099597;36.4658;9.2598;30.9758;
910069572099597;36.4170;9.3330;31.0124;
910069582099597;36.3682;9.4550;31.0978;
910069592099597;36.3682;9.5404;31.0734;
910069602099597;36.3682;9.5892;31.0856;
910069612099597;36.3316;9.6136;31.0612;
910069622099597;36.2096;9.5892;31.2564;
910069632099597;36.0388;9.5892;31.4394;
910069642099597;35.8924;9.5648;31.6834;
910069652099597;35.8680;9.4916;31.8298;
910069662099597;35.8802;9.3940;31.8908;
910069672099597;35.9778;9.2964;31.8908;
910069682099597;36.0754;9.2354;31.8176;
910069692099597;36.2096;9.1744;31.7810;
910069702099597;36.2584;9.1500;31.8786;
910069712099597;36.2706;9.1500;31.9274;
910069722099597;36.3316;9.2232;31.8420;
910069732099597;36.3316;9.2964;31.7688;
910069742099597;36.4414;9.3940;31.5980;
910069752099597;36.4292;9.5038;31.4394;
910069762099597;36.4170;9.5404;31.3784;
910069772099597;36.2462;9.5526;31.5370;
910069782099597;36.0510;9.5526;31.6346;
910069792099597;36.1120;9.5526;31.4882;
910069802099597;36.0754;9.4550;31.4760;
910069812099597;36.0998;9.3574;31.4150;
910069822099597;36.0510;9.2110;31.5248;
910069832099597;36.0266;9.0036;31.5736;
910069842099597;36.0998;8.8572;31.4028;
910069852099597;36.2584;8.7230;31.0734;
910069862099597;36.3926;8.6132;30.7806;
910069872099597;36.4414;8.4546;30.6708;
910069882099597;36.5390;8.2838;30.4878;
910069892099597;36.6122;8.0520;30.2926;
910069902099597;36.6976;7.8446;30.0486;
910069912099597;36.6000;7.7104;30.0608;
910069922099597;36.4292;7.5762;30.0730;
910069932099597;36.2706;7.4542;30.1706;
910069942099597;36.2096;7.2834;30.1462;
910069952099597;36.1852;7.1614;30.0608;
910069962099597;36.1120;7.1004;30.0486;
910069972099597;36.0510;7.0760;30.0486;
910069982099597;36.0510;7.0760;29.9998;
910069992099597;36.0266;7.0638;29.9388;
910070002099597;36.0998;7.0638;29.8656;
910070012099597;36.1974;7.0760;29.7070;
910070022099597;36.2218;7.1248;29.6338;
910070032099597;36.1974;7.1858;29.6460;
910070042099597;36.0388;7.2346;29.7680;
910070052099597;35.9168;7.3078;29.9388;
910070062099597;35.5996;7.3688;30.1706;
910070072099597;35.5508;7.4664;30.1340;
910070082099597;35.3190;7.5640;30.3414;
910070092099597;35.0506;7.6616;30.5488;
910070102099597;34.9286;7.7592;30.5976;
910070112099597;34.7334;7.8324;30.7074;
910070122099597;34.7456;7.9178;30.5488;
910070132099597;34.8310;8.0154;30.3658;
910070142099597;35.0872;8.1374;30.0364;
910070152099597;35.1604;8.2838;29.8900;
910070162099597;35.2946;8.4058;29.6216;
910070172099597;35.4532;8.5278;29.4386;
910070182099597;35.5874;8.6254;29.2434;
910070192099597;35.7216;8.7352;29.0116;
910070202099597;35.8436;8.8084;28.9384;
910070212099597;35.7704;8.8328;28.8408;
910070222099597;35.6850;8.8084;28.8896;
910070232099597;35.6606;8.7962;28.7920;
910070242099597;35.7094;8.6986;28.7432;
910070252099597;35.7216;8.6132;28.5724;
910070262099597;35.7460;8.5766;28.4870;
910070272099597;35.7948;8.4668;28.3040;
910070282099597;35.7826;8.3448;28.1454;
910070292099597;35.7948;8.2228;28.0478;
910070302099597;35.7338;8.1740;28.0112;
910070312099597;35.7094;8.0764;28.0356;
910070322099597;35.6728;7.9666;27.9380;
910070332099597;35.6484;7.8324;27.9136;
910070342099597;35.4898;7.7104;27.9258;
910070352099597;35.4288;7.5884;28.0478;
910070362099597;35.2580;7.5152;28.2064;
910070372099597;35.2336;7.4420;28.2186;
910070382099597;35.2214;7.3078;28.2064;
910070392099597;35.0262;7.1492;28.3284;
910070402099597;34.7700;7.0028;28.6456;
910070412099597;34.5382;6.9052;28.9750;
910070422099597;34.3308;6.8076;29.2068;
910070432099597;34.2210;6.7466;29.3654;
910070442099597;34.1844;6.6368;29.4508;
910070452099597;34.0624;6.6368;29.6582;
910070462099597;33.9404;6.6490;29.8046;
910070472099597;33.8550;6.7222;29.9266;
910070482099597;33.9770;6.8076;29.9510;
910070492099597;34.0746;6.9052;29.8778;
910070502099597;34.1478;6.9540;29.9144;
910070512099597;34.3186;7.0638;29.8900;
910070522099597;34.3796;7.2102;29.8656;
910070532099597;34.4894;7.2590;29.8778;
910070542099597;34.6236;7.3200;29.8168;
910070552099597;34.9042;7.4298;29.7070;
910070562099597;35.0140;7.5640;29.7070;
910070572099597;35.1116;7.6982;29.7680;
910070582099597;35.2702;7.8934;29.7558;
910070592099597;35.4410;8.0154;29.6460;
910070602099597;35.7338;8.1374;29.4874;
910070612099597;36.0510;8.3082;29.2922;
910070622099597;36.2950;8.4058;29.2312;
910070632099597;36.4170;8.4546;29.0970;
910070642099597;36.6122;8.5278;28.9018;
910070652099597;36.7708;8.5644;28.7798;
910070662099597;37.0026;8.5888;28.5480;
910070672099597;37.0514;8.6254;28.4748;
910070682099597;37.1246;8.6742;28.5114;
910070692099597;37.0392;8.7230;28.6700;
910070702099597;36.9904;8.7962;28.7554;
910070712099597;37.0392;8.8572;28.8042;
910070722099597;37.0148;8.8572;28.8774;
910070732099597;37.0270;8.8938;28.9628;
910070742099597;36.9294;8.8816;29.1824;
910070752099597;36.7830;8.8450;29.4630;
910070762099597;36.6122;8.8206;29.6216;
910070772099597;36.5878;8.7718;29.6704;
910070782099597;36.5512;8.7474;29.6948;
910070792099597;36.4536;8.7352;29.8900;
910070802099597;36.3682;8.7230;30.0120;
910070812099597;36.2340;8.6864;30.1584;
910070822099597;36.2096;8.6742;30.2316;
910070832099597;36.1852;8.6620;30.3536;
910070842099597;36.1120;8.6132;30.4634;
910070852099597;36.0144;8.5644;30.6220;
910070862099597;35.9656;8.5034;30.7806;
910070872099597;36.0754;8.4424;30.6464;
910070882099597;36.1486;8.4424;30.6464;
910070892099597;36.2462;8.3814;30.5000;
910070902099597;36.2950;8.3448;30.5000;
910070912099597;36.3560;8.2716;30.3414;
910070922099597;36.4048;8.2594;30.2316;
910070932099597;36.5512;8.2350;30.0730;
910070942099597;36.6610;8.2106;29.9388;
910070952099597;36.6000;8.1740;30.0974;
910070962099597;36.5878;8.1252;30.1340;
910070972099597;36.6366;8.1130;30.1218;
910070982099597;36.7220;8.1008;30.0120;
910070992099597;36.7830;8.1130;29.9876;
910071002099597;37.0392;8.1618;29.8412;
910071012099597;37.2588;8.1618;29.5240;
910071022099597;37.4418;8.1374;29.2678;
910071032099597;37.7224;8.1984;28.9750;
910071042099597;37.9298;8.2350;28.6456;
910071052099597;38.1616;8.2716;28.4016;
910071062099597;38.1738;8.3204;28.3894;
910071072099597;38.2226;8.3448;28.3894;
910071082099597;38.1006;8.3326;28.4870;
910071092099597;37.8932;8.3448;28.7310;
910071102099597;37.7224;8.4546;29.0238;
910071112099597;37.4052;8.4302;29.2678;
910071122099597;37.1490;8.4058;29.6460;
910071132099597;36.8562;8.4058;29.9388;
910071142099597;36.7830;8.3814;29.9022;
910071152099597;36.7708;8.3936;29.8778;
910071162099597;36.8318;8.4180;29.8168;
910071172099597;36.8196;8.4668;29.7802;
910071182099597;36.8196;8.4546;29.7192;
910071192099597;36.8928;8.4668;29.5606;
910071202099597;37.0148;8.5034;29.3288;
910071212099597;37.1734;8.6010;29.2068;
910071222099597;37.1734;8.6864;29.2800;
910071232099597;36.9904;8.7596;29.4020;
910071242099597;36.7586;8.8328;29.5850;
910071252099597;36.5878;8.8938;29.6826;
910071262099597;36.4780;8.9426;29.7192;
910071272099597;36.2828;9.0524;29.9144;
910071282099597;36.0754;9.1378;30.0486;
910071292099597;35.7826;9.1378;30.1584;
910071302099597;35.7582;9.1988;30.0242;
910071312099597;35.8314;9.2110;29.8656;
910071322099597;35.9168;9.1866;29.6948;
910071332099597;35.9168;9.1866;29.6948;
910071342099597;36.0022;9.2110;29.5118;
910071352099597;36.2828;9.1988;29.2434;
910071362099597;36.5512;9.1988;28.9872;
910071372099597;36.8684;9.2110;28.6944;
910071382099597;37.0514;9.1988;28.5358;
910071392099597;37.1612;9.1500;28.4016;
910071402099597;37.2466;9.1134;28.3162;
910071412099597;37.3564;9.0402;28.1454;
910071422099597;37.3808;8.9060;28.1820;
910071432099597;37.2588;8.8328;28.3040;
910071442099597;37.1124;8.7230;28.4138;
910071452099597;37.0148;8.6742;28.4870;
910071462099597;36.8806;8.5888;28.6212;
910071472099597;36.7586;8.5644;28.7798;
910071482099597;36.6976;8.5400;28.9506;
910071492099597;36.6488;8.5522;29.1702;
910071502099597;36.5024;8.5644;29.3654;
910071512099597;36.4170;8.5766;29.4874;
910071522099597;36.4780;8.6010;29.4996;
910071532099597;36.4170;8.6010;29.6582;
910071542099597;36.3194;8.6010;29.8046;
910071552099597;36.1852;8.6010;29.9388;
910071562099597;36.0998;8.5644;29.9632;
910071572099597;36.0510;8.5400;29.9022;
910071582099597;36.0876;8.5522;29.7558;
910071592099597;36.0998;8.5034;29.6948;
910071602099597;35.9778;8.5278;29.8412;
910071612099597;35.8436;8.4790;29.9022;
910071622099597;35.6972;8.4302;30.0120;
910071632099597;35.6728;8.4058;30.0120;
910071642099597;35.5752;8.3936;30.0852;
910071652099597;35.5142;8.4058;30.1218;
910071662099597;35.4166;8.3814;30.2316;
910071672099597;35.3922;8.3692;30.1950;
910071682099597;35.3556;8.3448;30.1340;
910071692099597;35.3922;8.2838;30.0486;
910071702099597;35.2946;8.2960;30.1340;
910071712099597;35.4410;8.2716;29.9266;
910071722099597;35.5142;8.2594;29.7924;
910071732099597;35.5264;8.1984;29.7558;
910071742099597;35.5630;8.1374;29.7070;
910071752099597;35.6118;8.1496;29.7314;
910071762099597;35.5874;8.1008;29.7192;
910071772099597;35.6362;8.0520;29.6094;
910071782099597;35.9656;8.0154;29.2922;
910071792099597;35.9534;7.9910;29.2434;
910071802099597;36.0876;7.9544;29.0970;
910071812099597;36.1852;7.9544;28.9750;
910071822099597;36.2828;8.0154;28.7798;
910071832099597;36.3072;7.9788;28.6822;
910071842099597;36.3804;7.9666;28.4992;
910071852099597;36.4414;8.0154;28.3772;
910071862099597;36.4658;8.0398;28.2186;
910071872099597;36.5756;8.0276;28.0234;
910071882099597;36.5878;8.0154;27.9258;
910071892099597;36.6366;8.0032;27.8282;
910071902099597;36.6976;7.9666;27.7672;
910071912099597;36.6488;7.9422;27.7550;
910071922099597;36.5512;7.9300;27.8892;
910071932099597;36.4902;7.9056;27.9380;
910071942099597;36.3682;7.8568;27.9746;
910071952099597;36.3560;7.8690;27.9868;
910071962099597;36.1730;7.8812;28.0844;
910071972099597;36.1120;7.8690;28.0356;
910071982099597;36.0388;7.8324;28.0844;
910071992099597;36.0754;7.7958;27.8892;
910072002099597;36.2096;7.7348;27.5964;
910072012099597;36.2584;7.7348;27.5476;
910072022099597;36.2340;7.7104;27.5354;
910072032099597;36.1608;7.6738;27.5720;
910072042099597;36.3194;7.6494;27.4012;
910072052099597;36.3804;7.5762;27.4012;
910072062099597;36.4780;7.5396;27.2792;
910072072099597;36.6244;7.5762;27.2060;
910072082099597;36.7830;7.6006;27.1084;
910072092099597;36.8440;7.5518;26.9742;
910072102099597;36.8196;7.5396;27.0474;
910072112099597;36.8074;7.5274;27.0840;
910072122099597;36.7952;7.5274;27.0718;
910072132099597;36.8074;7.5762;27.0108;
910072142099597;36.7952;7.5884;27.0108;
910072152099597;36.7586;7.5884;27.0230;
910072162099597;36.6732;7.6006;27.1938;
910072172099597;36.5512;7.5884;27.3890;
910072182099597;36.6610;7.6250;27.2792;
910072192099597;36.6854;7.6128;27.4256;
910072202099597;36.6122;7.5884;27.5598;
910072212099597;36.5512;7.6006;27.7916;
910072222099597;36.4292;7.6128;28.0356;
910072232099597;36.4536;7.5762;28.1210;
910072242099597;36.3804;7.4908;28.1942;
910072252099597;36.4170;7.4786;28.2674;
910072262099597;36.4414;7.4054;28.4504;
910072272099597;36.3438;7.3566;28.5724;
910072282099597;36.4170;7.3444;28.6700;
910072292099597;36.5024;7.2346;28.6456;
910072302099597;36.5878;7.1248;28.6700;
910072312099597;36.5634;7.0760;28.7798;
910072322099597;36.6854;6.9906;28.8530;
910072332099597;36.7342;6.9296;28.8896;
910072342099597;36.8196;6.8808;28.8774;
910072352099597;37.0148;6.8564;28.7066;
910072362099597;37.2100;6.7832;28.5846;
910072372099597;37.2954;6.7954;28.6334;
910072382099597;37.4662;6.7588;28.4748;
910072392099597;37.4906;6.6978;28.5236;
910072402099597;37.4540;6.7588;28.5602;
910072412099597;37.4418;6.7344;28.6334;
910072422099597;37.3808;6.6978;28.6578;
910072432099597;37.2832;6.6490;28.8164;
910072442099597;37.0758;6.5880;29.0238;
910072452099597;36.9050;6.5270;29.1580;
910072462099597;36.7830;6.5392;29.2922;
910072472099597;36.7586;6.5758;29.3898;
910072482099597;36.7220;6.5758;29.5118;
910072492099597;36.7952;6.5636;29.5118;
910072502099597;36.7586;6.5636;29.6216;
910072512099597;36.8196;6.6246;29.6216;
910072522099597;36.7830;6.7222;29.7070;
910072532099597;36.7586;6.7954;29.8168;
910072542099597;36.5878;6.8686;30.0608;
910072552099597;36.3194;6.9418;30.3902;
910072562099597;36.0754;7.0028;30.6952;
910072572099597;35.7826;7.1126;31.0124;
910072582099597;35.5386;7.2224;31.3174;
910072592099597;35.3312;7.2834;31.5614;
910072602099597;35.3068;7.3444;31.5980;
910072612099597;35.3922;7.4542;31.4882;
910072622099597;35.5264;7.5152;31.3052;
910072632099597;35.7460;7.5884;31.0612;
910072642099597;35.9534;7.6372;30.7806;
910072652099597;36.2828;7.6860;30.4268;
910072662099597;36.2706;7.7348;30.5244;
910072672099597;36.4902;7.8324;30.2194;
910072682099597;36.6366;7.8324;30.0608;
910072692099597;36.6732;7.7958;29.9388;
910072702099597;36.7586;7.8202;29.8656;
910072712099597;36.8440;7.8080;29.7070;
910072722099597;36.9294;7.8080;29.4996;
910072732099597;36.9904;7.8446;29.3166;
910072742099597;37.4296;7.8568;28.6700;
910072752099597;37.5394;7.8690;28.5358;
910072762099597;37.6004;7.9178;28.4870;
910072772099597;37.6736;7.9544;28.3528;
910072782099597;37.8566;7.9788;28.1820;
910072792099597;37.9420;7.9666;28.0478;
910072802099597;37.9664;7.9910;27.9990;
910072812099597;37.9176;7.9544;28.1210;
910072822099597;37.8322;7.9422;28.1698;
910072832099597;37.8688;7.9300;28.1210;
910072842099597;37.9298;7.8934;27.9380;
910072852099597;37.9908;7.9422;27.8770;
910072862099597;37.9298;7.8812;27.8648;
910072872099597;38.0030;7.8812;27.7916;
910072882099597;38.1006;7.8690;27.7306;
910072892099597;38.1738;7.8446;27.6330;
910072902099597;38.0518;7.8568;27.7916;
910072912099597;37.8078;7.8080;28.0722;
910072922099597;37.5760;7.8080;28.3406;
910072932099597;37.3564;7.7714;28.5358;
910072942099597;37.0514;7.8080;28.8164;
910072952099597;36.6854;7.8324;29.1336;
910072962099597;36.3804;7.8812;29.4264;
910072972099597;36.0754;7.9422;29.6826;
910072982099597;36.0144;7.9910;29.7192;
910072992099597;36.0388;8.1008;29.6216;
910073002099597;36.0144;8.1740;29.5606;
910073012099597;36.0876;8.2228;29.4752;
910073022099597;36.1730;8.2838;29.3410;
910073032099597;36.3438;8.3204;29.1336;
910073042099597;36.5390;8.3814;28.8164;
910073052099597;36.7586;8.4668;28.4748;
910073062099597;36.8684;8.5400;28.3040;
910073072099597;36.6366;8.5278;28.4382;
910073082099597;36.7342;8.6132;28.2308;
910073092099597;36.7342;8.7108;28.1332;
910073102099597;36.6610;8.8328;28.0478;
910073112099597;36.5634;8.8938;28.0478;
910073122099597;36.4048;8.9914;28.1698;
910073132099597;36.2584;9.0646;28.1698;
910073142099597;36.1120;9.1500;28.1942;
910073152099597;36.1364;9.2964;28.0722;
910073162099597;35.9046;9.4062;28.2796;
910073172099597;35.6362;9.4794;28.4748;
910073182099597;35.4532;9.5770;28.5968;
910073192099597;35.2946;9.7600;28.6456;
910073202099597;35.0262;9.8698;28.8896;
910073212099597;34.7456;10.0284;29.0970;
910073222099597;34.5870;10.1748;29.1580;
910073232099597;34.5748;10.3212;29.0482;
910073242099597;34.4284;10.4432;29.0726;
910073252099597;34.3918;10.5530;28.9872;
910073262099597;34.4040;10.7238;28.8530;
910073272099597;34.4894;10.8458;28.6822;
910073282099597;34.6724;10.9678;28.2796;
910073292099597;34.7822;11.0288;28.1576;
910073302099597;34.7944;11.1020;28.0722;
910073312099597;34.7700;11.1752;27.9624;
910073322099597;34.8310;11.2606;27.8038;
910073332099597;34.7090;11.4070;27.7794;
910073342099597;34.5870;11.4192;27.8770;
910073352099597;34.3308;11.5412;28.1088;
910073362099597;34.0868;11.6632;28.3772;
910073372099597;33.8672;11.7364;28.5236;
910073382099597;33.7452;11.8218;28.5114;
910073392099597;33.5134;11.9072;28.7310;
910073402099597;33.3670;11.9438;28.8652;
910073412099597;33.2450;11.9438;28.9994;
910073422099597;33.0620;11.9560;29.1336;
910073432099597;32.8302;11.8828;29.2312;
910073442099597;32.7082;11.8706;29.1702;
910073452099597;32.6716;11.8828;29.1580;
910073462099597;32.5496;11.8340;29.0238;
910073472099597;32.5984;11.7608;28.8896;
910073482099597;32.4764;11.6876;28.8774;
910073492099597;32.3910;11.6388;28.9140;
910073502099597;32.3178;11.5534;28.9384;
910073512099597;32.2446;11.4680;29.0238;
910073522099597;32.1714;11.3582;29.2068;
910073532099597;31.9152;11.2362;29.4508;
910073542099597;31.7078;11.1020;29.7314;
910073552099597;31.4760;10.9678;29.9632;
910073562099597;31.4638;10.8702;29.9632;
910073572099597;31.5126;10.8336;29.8412;
910073582099597;31.5492;10.7360;29.7436;
910073592099597;31.6590;10.6506;29.5240;
910073602099597;31.6102;10.5164;29.4752;
910073612099597;31.5980;10.4310;29.4386;
910073622099597;31.5614;10.3700;29.4874;
910073632099597;31.5248;10.3090;29.5484;
910073642099597;31.3906;10.2480;29.5728;
910073652099597;31.4638;10.1504;29.4264;
910073662099597;31.4882;10.1382;29.2922;
910073672099597;31.5370;10.1382;29.2190;
910073682099597;31.5736;10.1016;29.1580;
910073692099597;31.7444;10.0528;28.8408;
910073702099597;32.0128;9.9918;28.4382;
910073712099597;32.2690;10.0162;27.9990;
910073722099597;32.6106;10.0284;27.6696;
910073732099597;32.7570;10.0284;27.4622;
910073742099597;32.9400;10.0040;27.1694;
910073752099597;33.0742;9.9674;27.0352;
910073762099597;33.2694;10.0162;26.7058;
910073772099597;33.3182;10.0650;26.6814;
910073782099597;33.3182;10.2114;26.7790;
910073792099597;33.4646;10.3090;26.6570;
910073802099597;33.4890;10.4432;26.5960;
910073812099597;33.5744;10.6018;26.5960;
910073822099597;33.6964;10.7360;26.5838;
910073832099597;33.8794;10.9068;26.3642;
910073842099597;34.0990;11.1508;26.2666;
910073852099597;34.4162;11.4070;26.0470;
910073862099597;34.6480;11.6144;25.8274;
910073872099597;34.7822;11.8340;25.8518;
910073882099597;35.0140;12.0780;25.7664;
910073892099597;35.3068;12.3952;25.6444;
910073902099597;35.5752;12.7978;25.5956;
910073912099597;35.6972;13.1882;25.7054;
910073922099597;35.8192;13.5298;25.7908;
910073932099597;35.9656;13.9446;25.9738;
910073942099597;36.1852;14.3716;26.1446;
910073952099597;36.3316;14.7864;26.3398;
910073962099597;36.5024;15.2378;26.5472;
910073972099597;36.5634;15.6770;26.8522;
910073982099597;36.8684;16.1894;26.9498;
910073992099597;37.2344;16.7384;26.9864;
910074002099597;37.5760;17.2386;27.1328;
910074012099597;37.8444;17.7388;27.2182;
910074022099597;38.1616;18.2756;27.2914;
910074032099597;38.5154;18.8124;27.4256;
910074042099597;38.7594;19.3370;27.7794;
910074052099597;39.0522;19.8128;27.9502;
910074062099597;39.1498;20.2032;28.3650;
910074072099597;39.2474;20.5204;28.8408;
910074082099597;39.4304;20.9230;29.2068;
910074092099597;39.6378;21.2036;29.5240;
910074102099597;39.6744;21.3866;30.0608;
910074112099597;39.6988;21.4964;30.4390;
910074122099597;39.5890;21.5208;31.0246;
910074132099597;39.3450;21.4476;31.7566;
910074142099597;39.1132;21.3134;32.3910;
910074152099597;38.8570;21.1792;33.0254;
910074162099597;38.5276;20.9230;33.6842;
910074172099597;38.3080;20.6302;34.1844;
910074182099597;38.2348;20.3130;34.4162;
910074192099597;38.1738;20.0080;34.6968;
910074202099597;38.2348;19.6908;34.7700;
910074212099597;38.2714;19.3980;34.8554;
910074222099597;38.2104;18.9832;35.0140;
910074232099597;38.1128;18.5196;35.1116;
910074242099597;37.9542;18.0194;35.1848;
910074252099597;37.6736;17.5924;35.4532;
910074262099597;37.4418;17.1166;35.6118;
910074272099597;37.1978;16.6286;35.7216;
910074282099597;36.9904;16.1406;35.7826;
910074292099597;36.8318;15.7014;35.8192;
910074302099597;36.7830;15.3720;35.6606;
910074312099597;36.7220;15.0426;35.5142;
910074322099597;36.7952;14.7742;35.2702;
910074332099597;36.9416;14.4936;34.9774;
910074342099597;36.8684;14.2740;34.8554;
910074352099597;36.8318;14.0544;34.7334;
910074362099597;36.8684;13.8348;34.5138;
910074372099597;36.9904;13.6396;34.2454;
910074382099597;36.9782;13.4444;34.1478;
910074392099597;37.0270;13.2736;33.9282;
910074402099597;37.1124;13.1272;33.6476;
910074412099597;37.0636;12.9320;33.5012;
910074422099597;37.1612;12.7490;33.1840;
910074432099597;37.2710;12.6148;32.8546;
910074442099597;37.2222;12.4928;32.7448;
910074452099597;37.1124;12.3952;32.6594;
910074462099597;37.1124;12.2732;32.5008;
910074472099597;37.0636;12.2122;32.4398;
910074482099597;37.0148;12.1268;32.4642;
910074492099597;37.0636;12.0902;32.3422;
910074502099597;37.0270;12.0902;32.4154;
910074512099597;36.9416;12.0536;32.4764;
910074522099597;37.0392;12.0292;32.3056;
910074532099597;37.1124;12.0292;32.1592;
910074542099597;37.0880;12.0292;32.0372;
910074552099597;37.2100;12.0170;31.8664;
910074562099597;37.3076;12.0170;31.6712;
910074572099597;37.3076;12.0048;31.6590;
910074582099597;37.3076;11.9926;31.7200;
910074592099597;37.2954;11.9804;31.6590;
910074602099597;37.3076;11.9926;31.6224;
910074612099597;37.3198;11.9926;31.5980;
910074622099597;37.3320;11.9804;31.5858;
910074632099597;37.2344;11.9194;31.6590;
910074642099597;37.1002;11.8950;31.7444;
910074652099597;37.0880;11.9194;31.6224;
910074662099597;37.2344;11.9438;31.2930;
910074672099597;37.2710;11.9438;31.2564;
910074682099597;37.1612;11.9194;31.2686;
910074692099597;37.2344;11.8706;31.1466;
910074702099597;37.4784;11.8340;30.8416;
910074712099597;37.6126;11.8096;30.5976;
910074722099597;37.7224;11.7974;30.5000;
910074732099597;37.9420;11.7608;30.2682;
910074742099597;38.1372;11.7120;30.0364;
910074752099597;38.3202;11.6998;29.7680;
910074762099597;38.6374;11.6876;29.4508;
910074772099597;38.7838;11.6510;29.2312;
910074782099597;38.7228;11.5778;29.2678;
910074792099597;38.8570;11.5900;29.1458;
910074802099597;39.0278;11.5290;28.9750;
910074812099597;39.0034;11.4436;28.9506;
910074822099597;38.9302;11.3948;29.0360;
910074832099597;38.8814;11.2728;29.0482;
910074842099597;38.7960;11.1386;29.0482;
910074852099597;38.6984;11.0776;29.2312;
910074862099597;38.7350;10.9800;29.1824;
910074872099597;38.7716;10.8946;29.2068;
910074882099597;38.7228;10.8214;29.2190;
910074892099597;38.6862;10.7238;29.2434;
910074902099597;38.6740;10.5896;29.2312;
910074912099597;38.7594;10.5652;29.2556;
910074922099597;38.7716;10.4554;29.3898;
910074932099597;38.7594;10.3456;29.3044;
910074942099597;38.7228;10.2846;29.4264;
910074952099597;38.5764;10.1626;29.5240;
910074962099597;38.5398;10.0528;29.6094;
910074972099597;38.4178;9.9430;29.8778;
910074982099597;38.4544;9.9064;29.9266;
910074992099597;38.4422;9.7600;29.8778;
910075002099597;38.4788;9.7112;29.7680;
910075012099597;38.4910;9.6136;29.8656;
910075022099597;38.4666;9.5160;29.9144;
910075032099597;38.4788;9.4550;29.9266;
910075042099597;38.3568;9.3452;29.9632;
910075052099597;38.4544;9.2720;29.8046;
910075062099597;38.3080;9.1256;29.9510;
910075072099597;38.1616;9.0524;30.1462;
910075082099597;37.9664;8.9304;30.3902;
910075092099597;37.6248;8.8328;30.8050;
910075102099597;37.6126;8.7474;30.7928;
910075112099597;37.7224;8.6132;30.6830;
910075122099597;37.8932;8.5400;30.5122;
910075132099597;38.0396;8.4180;30.3536;
910075142099597;38.2226;8.3326;30.1218;
910075152099597;38.4666;8.2472;29.8534;
910075162099597;38.5398;8.1984;29.7802;
910075172099597;38.9302;8.1252;29.3044;
910075182099597;39.1254;8.1374;29.0726;
910075192099597;39.1620;8.1496;28.9628;
910075202099597;39.1986;8.1374;28.9994;
910075212099597;39.0888;8.1252;29.0970;
910075222099597;39.1132;8.1862;29.0116;
910075232099597;39.0278;8.2472;29.1702;
910075242099597;39.1254;8.2472;29.0482;
910075252099597;39.1132;8.3448;28.9872;
910075262099597;39.1132;8.3936;28.9994;
910075272099597;39.1620;8.4912;28.9872;
910075282099597;39.1986;8.6010;28.9262;
910075292099597;39.1376;8.6986;28.9628;
910075302099597;39.0400;8.7474;29.1458;
910075312099597;38.9424;8.8694;29.1824;
910075322099597;38.8204;9.0646;29.2922;
910075332099597;38.6862;9.1378;29.4020;
910075342099597;38.4300;9.1744;29.6094;
910075352099597;38.4056;9.2720;29.6216;
910075362099597;38.2836;9.3452;29.6948;
910075372099597;38.3690;9.4550;29.4874;
910075382099597;38.3690;9.5892;29.4142;
910075392099597;38.2592;9.6258;29.5240;
910075402099597;38.1860;9.5892;29.6216;
910075412099597;38.1860;9.6258;29.7192;
910075422099597;38.2104;9.6624;29.6826;
910075432099597;38.0396;9.6136;29.8534;
910075442099597;37.9298;9.6136;30.0486;
910075452099597;37.7346;9.5892;30.3414;
910075462099597;37.5272;9.5038;30.5244;
910075472099597;37.5638;9.4916;30.4634;
910075482099597;37.7102;9.5404;30.3292;
910075492099597;37.7102;9.4916;30.2926;
910075502099597;37.7102;9.4916;30.3292;
910075512099597;37.7346;9.4550;30.4024;
910075522099597;37.9542;9.4428;30.0608;
910075532099597;38.1494;9.4184;29.7924;
910075542099597;38.4788;9.3940;29.4752;
910075552099597;38.6618;9.2598;29.2800;
910075562099597;38.6740;9.1134;29.2312;
910075572099597;38.7472;9.0158;29.1946;
910075582099597;39.0278;8.9060;28.8652;
910075592099597;39.3084;8.8572;28.4870;
910075602099597;39.3694;8.7230;28.4504;
910075612099597;39.2962;8.5888;28.5846;
910075622099597;39.1254;8.4668;28.7798;
910075632099597;39.1010;8.2960;28.8530;
910075642099597;39.1010;8.1252;28.8774;
910075652099597;39.1254;7.9788;28.7432;
910075662099597;39.0034;7.8202;28.8652;
910075672099597;38.7960;7.6128;29.0970;
910075682099597;38.6862;7.4542;29.3532;
910075692099597;38.6496;7.2956;29.3410;
910075702099597;38.6008;7.1248;29.4020;
910075712099597;38.5520;7.0516;29.3654;
910075722099597;38.4788;6.9784;29.3898;
910075732099597;38.5642;6.9052;29.3410;
910075742099597;38.6252;6.7832;29.3288;
910075752099597;38.7716;6.7100;29.2068;
910075762099597;38.8082;6.6612;29.0238;
910075772099597;38.9668;6.6002;28.8408;
910075782099597;39.1864;6.6124;28.6212;
910075792099597;39.3450;6.5758;28.4870;
910075802099597;39.6134;6.5758;28.2308;
910075812099597;39.6256;6.5270;28.2186;
910075822099597;39.6500;6.5636;28.1332;
910075832099597;39.6866;6.5514;28.0966;
910075842099597;39.7720;6.5270;27.9990;
910075852099597;39.8574;6.5148;27.9136;
910075862099597;39.8696;6.4660;27.9258;
910075872099597;39.8574;6.5148;27.9258;
910075882099597;39.7964;6.5758;27.9380;
910075892099597;39.7110;6.6002;28.0234;
910075902099597;39.5402;6.6002;28.2308;
910075912099597;39.3694;6.6734;28.4138;
910075922099597;39.1498;6.7588;28.6700;
910075932099597;38.7960;6.7954;29.0482;
910075942099597;38.4788;6.8808;29.4020;
910075952099597;38.1616;6.9174;29.7924;
910075962099597;37.9420;6.9540;30.0730;
910075972099597;37.8200;7.0516;30.1462;
910075982099597;37.6492;7.1492;30.3780;
910075992099597;37.5638;7.1980;30.4024;
910076002099597;37.4906;7.2224;30.4878;
910076012099597;37.5394;7.2834;30.4756;
910076022099597;37.6004;7.3566;30.3536;
910076032099597;37.7224;7.4420;30.1462;
910076042099597;37.7468;7.5274;30.1950;
910076052099597;37.8322;7.5884;30.0974;
910076062099597;37.9542;7.6616;29.9144;
910076072099597;38.0640;7.7226;29.8778;
910076082099597;38.1494;7.8202;29.7924;
910076092099597;38.2470;7.8812;29.6948;
910076102099597;38.3690;7.9544;29.5606;
910076112099597;38.4788;8.0520;29.4264;
910076122099597;38.5154;8.0520;29.2922;
910076132099597;38.5764;8.1008;29.2678;
910076142099597;38.6008;8.1374;29.2190;
910076152099597;38.5886;8.2106;29.2190;
910076162099597;38.6496;8.2716;29.1458;
910076172099597;38.6740;8.3326;29.0726;
910076182099597;38.6374;8.3936;29.1092;
910076192099597;38.6008;8.3814;29.2556;
910076202099597;38.6252;8.4546;29.3166;
910076212099597;38.5642;8.4912;29.4508;
910076222099597;38.4910;8.5766;29.6094;
910076232099597;38.4300;8.6010;29.6826;
910076242099597;38.3812;8.6254;29.6948;
910076252099597;38.4544;8.6864;29.7192;
910076262099597;38.4910;8.7230;29.7070;
910076272099597;38.5032;8.7840;29.6582;
910076282099597;38.4788;8.7962;29.7192;
910076292099597;38.4788;8.8328;29.7070;
910076302099597;38.5886;8.8328;29.6094;
910076312099597;38.7228;8.8938;29.4630;
910076322099597;38.8448;8.9060;29.4020;
910076332099597;38.8082;8.9304;29.3410;
910076342099597;38.7350;8.8816;29.4264;
910076352099597;38.6374;8.8938;29.4996;
910076362099597;38.6130;8.9670;29.5118;
910076372099597;38.4544;9.0036;29.6460;
910076382099597;38.2714;9.0280;29.7436;
910076392099597;38.0640;9.0280;29.9510;
910076402099597;37.8932;9.0768;30.0730;
910076412099597;37.7834;9.0890;30.2316;
910076422099597;37.8566;9.1622;30.2194;
910076432099597;37.8444;9.1988;30.2072;
910076442099597;37.8200;9.2232;30.1828;
910076452099597;37.8810;9.2110;30.1584;
910076462099597;37.9298;9.2598;30.1462;
910076472099597;37.9664;9.3086;30.1950;
910076482099597;37.9542;9.3818;30.2804;
910076492099597;37.8810;9.4794;30.4634;
910076502099597;37.6736;9.5526;30.7074;
910076512099597;37.6004;9.6380;30.8660;
910076522099597;37.5638;9.7234;30.9758;
910076532099597;37.5150;9.8332;31.0002;
910076542099597;37.5028;9.9186;31.0002;
910076552099597;37.3808;10.0162;31.0368;
910076562099597;37.3930;10.1016;30.9636;
910076572099597;37.4540;10.1504;30.7928;
910076582099597;37.4784;10.2968;30.7074;
910076592099597;37.5760;10.4188;30.5732;
910076602099597;37.6248;10.5286;30.5122;
910076612099597;37.6370;10.6506;30.4024;
910076622099597;37.5394;10.8092;30.4512;
910076632099597;37.6370;10.9678;30.3170;
910076642099597;37.6248;11.1142;30.2804;
910076652099597;37.6614;11.3338;30.2682;
910076662099597;37.7468;11.4314;30.1462;
910076672099597;37.6370;11.5900;30.2316;
910076682099597;37.6004;11.7120;30.1584;
910076692099597;37.6492;11.8584;30.1706;
910076702099597;37.7956;11.9926;29.9754;
910076712099597;37.9542;12.1268;29.7924;
910076722099597;37.9908;12.2244;29.7436;
910076732099597;38.0274;12.3098;29.6582;
910076742099597;38.1006;12.4684;29.4996;
910076752099597;38.2958;12.5660;29.2434;
910076762099597;38.4056;12.7002;29.0848;
910076772099597;38.4544;12.7978;28.9872;
910076782099597;38.4422;12.8344;28.9872;
910076792099597;38.3934;12.9076;29.0116;
910076802099597;38.4056;12.9930;29.0848;
910076812099597;38.5032;13.0784;29.0116;
910076822099597;38.5886;13.0906;28.9262;
910076832099597;38.5642;13.1028;28.9994;
910076842099597;38.5764;13.1394;29.0360;
910076852099597;38.5764;13.1638;29.0238;
910076862099597;38.6496;13.1638;28.9750;
910076872099597;38.6374;13.1394;28.9628;
910076882099597;38.6496;13.1028;28.9262;
910076892099597;38.5886;13.1028;28.9750;
910076902099597;38.5764;13.0906;28.9628;
910076912099597;38.6618;13.1150;28.8652;
910076922099597;38.6862;13.0418;28.7798;
910076932099597;38.8570;13.0052;28.6090;
910076942099597;38.9180;13.0540;28.4260;
910076952099597;39.0400;13.0540;28.2918;
910076962099597;39.1864;13.0662;28.0356;
910076972099597;39.2840;12.9930;27.8404;
910076982099597;39.3328;12.9442;27.7916;
910076992099597;39.3572;12.8588;27.8038;
910077002099597;39.4304;12.8466;27.7184;
910077012099597;39.5402;12.8710;27.6330;
910077022099597;39.6866;12.8466;27.6086;
910077032099597;39.8452;12.8466;27.4622;
910077042099597;39.7964;12.8344;27.5110;
910077052099597;39.7110;12.8832;27.6208;
910077062099597;39.5158;12.9198;27.8282;
910077072099597;39.3816;12.9198;27.9258;
910077082099597;39.2108;12.9076;28.1942;
910077092099597;38.7960;12.8222;28.6578;
910077102099597;38.4666;12.7856;28.8896;
910077112099597;38.1616;12.7612;29.3166;
910077122099597;38.0274;12.6758;29.4020;
910077132099597;37.9664;12.6148;29.5240;
910077142099597;37.9542;12.5660;29.5484;
910077152099597;37.9664;12.5416;29.6094;
910077162099597;37.9420;12.5294;29.6582;
910077172099597;38.1128;12.5172;29.4874;
910077182099597;38.2836;12.4806;29.4752;
910077192099597;38.3446;12.4562;29.3654;
910077202099597;38.3568;12.4440;29.4142;
910077212099597;38.3324;12.4074;29.4386;
910077222099597;38.3812;12.3342;29.3898;
910077232099597;38.4178;12.2244;29.2434;
910077242099597;38.5154;12.1024;29.0848;
910077252099597;38.5276;12.0170;29.0726;
910077262099597;38.5398;11.8950;29.0482;
910077272099597;38.5276;11.6998;29.0482;
910077282099597;38.6252;11.5534;29.0726;
910077292099597;38.6984;11.4070;29.0604;
910077302099597;38.7838;11.2362;29.0726;
910077312099597;38.8082;11.0532;29.1702;
910077322099597;38.7472;10.8458;29.3410;
910077332099597;38.7472;10.5896;29.3410;
910077342099597;38.6740;10.3822;29.4142;
910077352099597;38.7472;10.2846;29.4386;
910077362099597;38.7106;10.1504;29.4752;
910077372099597;38.6740;9.9430;29.5362;
910077382099597;38.5642;9.7722;29.6338;
910077392099597;38.3446;9.6502;29.8168;
910077402099597;38.2592;10.0162;30.2072;
910077412099597;38.1738;9.9552;30.3170;
910077422099597;38.1372;9.8210;30.3414;
910077432099597;38.0762;9.6624;30.3902;
910077442099597;38.0640;9.5404;30.4024;
910077452099597;38.0884;9.4428;30.4146;
910077462099597;38.3080;9.3940;30.1340;
910077472099597;38.5764;9.2720;29.8900;
910077482099597;38.7838;9.1500;29.6704;
910077492099597;39.0156;9.0158;29.4630;
910077502099597;39.2108;8.9304;29.2678;
910077512099597;39.1864;8.7962;29.2922;
910077522099597;39.2352;8.6864;29.2068;
910077532099597;39.2596;8.5644;29.0970;
910077542099597;39.2230;8.4424;29.1824;
910077552099597;39.1376;8.3570;29.2678;
910077562099597;39.0766;8.3448;29.2556;
910077572099597;38.9668;8.3082;29.3654;
910077582099597;38.8326;8.2838;29.5606;
910077592099597;38.8448;8.2716;29.5484;
910077602099597;38.9058;8.1984;29.5728;
910077612099597;39.0522;8.1862;29.4142;
910077622099597;39.0156;8.1496;29.4264;
910077632099597;39.1742;8.1008;29.2922;
910077642099597;39.2352;8.0520;29.2678;
910077652099597;39.1498;8.0032;29.3532;
910077662099597;39.0278;7.9300;29.4874;
910077672099597;38.9302;7.8446;29.5850;
910077682099597;38.8204;7.8202;29.6704;
910077692099597;38.6008;7.7714;29.9510;
910077702099597;38.4788;7.7226;30.1828;
910077712099597;38.1982;7.7348;30.5488;
910077722099597;38.1006;7.6860;30.7074;
910077732099597;38.1494;7.6372;30.6586;
910077742099597;38.2714;7.6250;30.5732;
910077752099597;38.5154;7.6128;30.2804;
910077762099597;38.6984;7.5884;30.0974;
910077772099597;38.8448;7.5396;29.9388;
910077782099597;38.9546;7.5640;29.8168;
910077792099597;39.1498;7.5152;29.5728;
910077802099597;39.2474;7.4908;29.4630;
910077812099597;39.2352;7.4298;29.5118;
910077822099597;39.2596;7.3932;29.4264;
910077832099597;39.1132;7.3688;29.6338;
910077842099597;38.8204;7.2956;29.9632;
910077852099597;38.7228;7.2346;30.0608;
910077862099597;38.6618;7.1004;30.1584;
910077872099597;38.6374;7.0638;30.1950;
910077882099597;38.6252;7.0150;30.1706;
910077892099597;38.6496;6.9906;30.1584;
910077902099597;38.6618;6.9418;30.2316;
910077912099597;38.6984;6.9174;30.1584;
910077922099597;38.8448;6.8930;29.9754;
910077932099597;38.7960;6.8930;30.0608;
910077942099597;38.7716;6.8930;30.0486;
910077952099597;38.6740;6.8564;30.1584;
910077962099597;38.5154;6.8076;30.4146;
910077972099597;38.4300;8.3692;31.2320;
910077982099597;38.4788;8.3204;31.1222;
910077992099597;38.4788;8.2838;31.1710;
910078002099597;38.4178;8.2594;31.2686;
910078012099597;38.4666;8.1984;31.3052;
910078022099597;38.5032;8.1496;31.2564;
910078032099597;38.4422;8.1252;31.4028;
910078042099597;38.4300;8.1130;31.4150;
910078052099597;38.2958;8.0764;31.5980;
910078062099597;38.2104;8.0520;31.7566;
910078072099597;38.0640;8.0032;31.9640;
910078082099597;38.1128;7.9910;31.9274;
910078092099597;38.1616;7.9544;31.7932;
910078102099597;38.2470;7.9422;31.7566;
910078112099597;38.4544;7.9056;31.5004;
910078122099597;38.5154;7.9056;31.4150;
910078132099597;38.5154;7.8690;31.3296;
910078142099597;38.4056;7.8446;31.3662;
910078152099597;38.4544;7.8324;31.3174;
910078162099597;38.3324;7.7958;31.4516;
910078172099597;38.1494;7.7958;31.6590;
910078182099597;37.9664;7.7226;31.9274;
910078192099597;37.8200;7.7226;32.1104;
910078202099597;37.8200;7.6616;32.1714;
910078212099597;37.8932;7.6616;32.1348;
910078222099597;38.0518;7.6616;32.0006;
910078232099597;38.1738;7.6494;31.8420;
910078242099597;38.2592;7.5884;31.6834;
910078252099597;38.4666;7.5884;31.4394;
910078262099597;38.6130;7.6738;31.1344;
910078272099597;38.6740;7.6982;31.0002;
910078282099597;38.7960;7.7348;30.8050;
910078292099597;38.8814;7.7958;30.6952;
910078302099597;38.8204;7.7958;30.7318;
910078312099597;38.6496;7.8446;30.9514;
910078322099597;38.6252;7.9178;31.0002;
910078332099597;38.4666;7.9544;31.1710;
910078342099597;38.2836;7.9300;31.4638;
910078352099597;38.2104;7.9666;31.5004;
910078362099597;38.0030;7.9910;31.7932;
910078372099597;37.8688;8.0032;31.9640;
910078382099597;37.8078;8.0642;32.0738;
910078392099597;37.8200;8.1252;32.0250;
910078402099597;37.7224;8.1862;32.2202;
910078412099597;37.5882;8.2716;32.3666;
910078422099597;37.5272;8.3570;32.2934;
910078432099597;37.4540;8.3814;32.3178;
910078442099597;37.5394;8.4424;32.1958;
910078452099597;37.4784;8.4424;32.1836;
910078462099597;37.4784;8.4302;32.0494;
910078472099597;37.5028;8.3936;31.9640;
910078482099597;37.5760;8.4180;31.8542;
910078492099597;37.5882;8.3814;31.8054;
910078502099597;37.7102;8.3814;31.7322;
910078512099597;37.6492;8.3570;31.8664;
910078522099597;37.6736;8.3082;31.7932;
910078532099597;37.6980;8.3082;31.7810;
910078542099597;37.6614;8.3204;31.8786;
910078552099597;37.7468;8.2838;31.8420;
910078562099597;37.7590;8.1618;31.7566;
910078572099597;37.9298;8.0642;31.5492;
910078582099597;37.9054;7.9422;31.5004;
910078592099597;38.0518;7.8568;31.3418;
910078602099597;38.1372;7.7348;31.2930;
910078612099597;38.2836;7.6006;31.1100;
910078622099597;38.3934;7.4786;30.9880;
910078632099597;38.3812;7.3810;30.9758;
910078642099597;38.4422;7.2468;30.9148;
910078652099597;38.4910;7.1736;30.8904;
910078662099597;38.4910;7.0638;30.9270;
910078672099597;38.3690;6.9662;31.0246;
910078682099597;38.2226;6.8930;31.1832;
910078692099597;38.0152;6.7954;31.4394;
910078702099597;37.8200;6.6612;31.6346;
910078712099597;37.7224;6.5270;31.6956;
910078722099597;37.6004;6.4660;31.8420;
910078732099597;37.4052;6.3196;32.0616;
910078742099597;37.2832;6.1976;32.2324;
910078752099597;37.1856;6.0878;32.3544;
910078762099597;37.1124;5.9536;32.4398;
910078772099597;37.0880;5.8682;32.4520;
910078782099597;37.3320;5.7706;32.2446;
910078792099597;37.4174;5.6974;32.1348;
910078802099597;37.4540;5.5754;32.0860;
910078812099597;37.4906;5.5510;32.0006;
910078822099597;37.6614;5.5388;31.7688;
910078832099597;37.9542;5.5266;31.4150;
910078842099597;38.1006;5.4900;31.2076;
910078852099597;38.2836;5.4046;31.0002;
910078862099597;38.2348;5.4290;31.0612;
910078872099597;38.1982;5.4412;31.1100;
910078882099597;38.2470;5.4290;31.0246;
910078892099597;38.4666;5.4290;30.8050;
910078902099597;38.6008;5.4778;30.6220;
910078912099597;38.6130;5.4290;30.5732;
910078922099597;38.5154;5.4534;30.6708;
910078932099597;38.4666;5.4778;30.7440;
910078942099597;38.2714;5.4656;30.9758;
910078952099597;38.0152;5.4778;31.3662;
910078962099597;37.7590;5.5144;31.6590;
910078972099597;37.5150;5.5266;31.9396;
910078982099597;37.2954;5.4778;32.2324;
910078992099597;37.0758;5.5144;32.5374;
910079002099597;37.1612;5.5022;32.5008;
910079012099597;37.1368;5.5388;32.5374;
910079022099597;37.4052;5.5632;32.1714;
910079032099597;37.6614;5.5144;31.7200;
910079042099597;37.8566;5.5144;31.5004;
910079052099597;37.9420;5.5266;31.3296;
910079062099597;38.0152;5.4900;31.2686;
910079072099597;38.2226;5.4778;31.0124;
910079082099597;38.3446;5.4534;30.8172;
910079092099597;38.6130;5.4046;30.4756;
910079102099597;38.6252;5.3680;30.4146;
910079112099597;38.6740;5.3680;30.3536;
910079122099597;38.7350;5.2704;30.1462;
910079132099597;38.8326;5.1972;30.0120;
910079142099597;38.9790;5.1240;29.8900;
910079152099597;39.0156;5.0142;29.7558;
910079162099597;39.1254;4.9410;29.5728;
910079172099597;39.0766;4.8434;29.5850;
910079182099597;39.1620;4.7458;29.5606;
910079192099597;39.1864;4.6482;29.5728;
910079202099597;39.2596;4.5750;29.5972;
910079212099597;39.2230;4.5018;29.6948;
910079222099597;39.1498;4.4164;29.7558;
910079232099597;39.0156;4.3188;29.9632;
910079242099597;38.8204;4.2090;30.1340;
910079252099597;38.7472;4.1480;30.2682;
910079262099597;38.6008;4.0748;30.3536;
910079272099597;38.5764;3.9650;30.3780;
910079282099597;38.6618;3.9406;30.2804;
910079292099597;38.7960;3.8552;30.0974;
910079302099597;38.7716;3.8430;30.0242;
910079312099597;38.8814;3.8796;29.8778;
910079322099597;39.0400;3.9162;29.7802;
910079332099597;39.0034;3.9040;29.7070;
910079342099597;38.9790;3.8918;29.6948;
910079352099597;39.1254;3.9772;29.5118;
910079362099597;39.1620;3.9650;29.4874;
910079372099597;39.1620;4.0382;29.4630;
910079382099597;39.3084;4.0992;29.3288;
910079392099597;39.3450;4.1114;29.2190;
910079402099597;39.2596;4.1602;29.2556;
910079412099597;39.3450;4.1480;29.2312;
910079422099597;39.4182;4.1724;29.1824;
910079432099597;39.3816;4.1358;29.2434;
910079442099597;39.2474;4.1358;29.3654;
910079452099597;39.0644;4.0748;29.5484;
910079462099597;38.9058;4.0138;29.6704;
910079472099597;38.7838;3.9650;29.8412;
910079482099597;38.5398;3.8674;30.0364;
910079492099597;38.2104;3.8552;30.4024;
910079502099597;37.9542;3.8308;30.6708;
910079512099597;37.6126;3.7576;31.0368;
910079522099597;37.3442;3.7332;31.2320;
910079532099597;37.2588;3.7332;31.3174;
910079542099597;37.1490;3.6600;31.4882;
910079552099597;37.0636;3.5990;31.4638;
910079562099597;37.1978;3.5746;31.4150;
910079572099597;37.4540;3.5990;31.0734;
910079582099597;37.6858;3.5624;30.8416;
910079592099597;37.9908;3.5746;30.4878;
910079602099597;38.3202;3.5624;30.2072;
910079612099597;38.4422;3.4892;30.1218;
910079622099597;38.5764;3.4404;29.9388;
910079632099597;38.6374;3.3916;30.0120;
910079642099597;38.7350;3.3672;29.8290;
910079652099597;38.7350;3.2574;29.8168;
910079662099597;38.6496;3.2208;29.9022;
910079672099597;38.5154;3.1476;29.9998;
910079682099597;38.3812;3.1354;30.1096;
910079692099597;38.3446;3.1354;30.1218;
910079702099597;38.3324;3.1964;30.1462;
910079712099597;38.3568;3.1964;30.0486;
910079722099597;38.1860;3.1964;30.2682;
910079732099597;38.0274;3.2208;30.5366;
910079742099597;37.9542;3.2086;30.5000;
910079752099597;38.0762;3.2574;30.3048;
910079762099597;38.2226;3.2818;30.1462;
910079772099597;38.3080;3.2696;30.0730;
910079782099597;38.4056;3.1964;29.9388;
910079792099597;38.4300;3.1964;29.9144;
910079802099597;38.4788;3.1720;29.8656;
910079812099597;38.3690;3.0988;29.8900;
910079822099597;38.3324;3.0744;30.0486;
910079832099597;38.1006;3.0256;30.4024;
910079842099597;37.9176;2.9768;30.6342;
910079852099597;37.7224;2.9524;30.8904;
910079862099597;37.3808;2.9402;31.2686;
910079872099597;37.1368;2.9158;31.5736;
910079882099597;37.0636;2.9524;31.6224;
910079892099597;37.2222;3.0256;31.4882;
910079902099597;37.3198;3.0378;31.3906;
910079912099597;37.5028;3.0866;31.1222;
910079922099597;37.4418;3.0378;31.0368;
910079932099597;37.5028;3.0500;30.8782;
910079942099597;37.6492;3.0744;30.6830;
910079952099597;37.8566;3.0622;30.4878;
910079962099597;37.9176;3.0256;30.4024;
910079972099597;38.0640;2.9646;30.2560;
910079982099597;38.1494;2.9524;30.0974;
910079992099597;38.0884;2.8914;30.1218;
910080002099597;38.1860;2.9158;30.2682;
910080012099597;38.2348;2.8792;30.2804;
910080022099597;38.2104;2.8426;30.3414;
910080032099597;38.1372;2.8670;30.3902;
910080042099597;38.1006;2.8060;30.3536;
910080052099597;37.9176;2.8426;30.4634;
910080062099597;37.8322;2.8548;30.6708;
910080072099597;37.7956;2.8548;30.8050;
910080082099597;37.7590;2.8426;30.7928;
910080092099597;37.7590;2.8914;30.7440;
910080102099597;37.7224;2.9402;30.8172;
910080112099597;37.6492;2.9036;30.8782;
910080122099597;37.6004;2.9280;30.9514;
910080132099597;37.5882;2.9036;31.0612;
910080142099597;37.5150;2.8670;31.0124;
910080152099597;37.6858;2.8914;30.6952;
910080162099597;37.7102;2.8670;30.5976;
910080172099597;37.6614;2.8426;30.6342;
910080182099597;37.7346;2.7938;30.6098;
910080192099597;37.7712;2.8060;30.5366;
910080202099597;37.7712;2.8426;30.5610;
910080212099597;37.7712;2.8670;30.5732;
910080222099597;37.7346;2.8792;30.6464;
910080232099597;37.4906;2.8426;31.0490;
910080242099597;37.3198;2.8182;31.1588;
910080252099597;37.2100;2.8426;31.2442;
910080262099597;37.1856;2.8792;31.2442;
910080272099597;37.2222;2.9036;31.2442;
910080282099597;37.3076;2.8670;31.1466;
910080292099597;37.3320;2.8548;31.1466;
910080302099597;37.4540;2.8548;30.9880;
910080312099597;37.5150;2.8548;30.7562;
910080322099597;37.6858;2.8182;30.5610;
910080332099597;37.7468;2.7450;30.4024;
910080342099597;37.8078;2.6230;30.1828;
910080352099597;37.7834;2.5254;30.1096;
910080362099597;37.8200;2.4278;29.9754;
910080372099597;37.8200;2.3058;29.7192;
910080382099597;37.9420;2.2082;29.4630;
910080392099597;38.0884;2.1106;29.2068;
910080402099597;38.1616;2.0008;28.9384;
910080412099597;38.2714;1.8910;28.6822;
910080422099597;38.4422;1.8056;28.4382;
910080432099597;38.5276;1.6958;28.1942;
