Sensor: mmc5603x Magnetometer Non-wakeup
Vendor: memsic
TimestampMag [ns]; MagX [uT]; MagY [uT]; MagZ [uT]
81958792971911;38.9790;-16.9458;1.6836;
81958802971911;38.9790;-16.9458;1.6836;
81958814382536;39.1132;-16.8970;1.5860;
81958824382536;39.1010;-16.8604;1.4884;
81958834382536;39.1376;-16.8360;1.4762;
81958844382536;39.3206;-16.8238;1.2200;
81958854382536;39.3694;-16.8116;1.1712;
81958864382536;39.4060;-16.8360;1.1468;
81958874382536;39.4548;-16.8116;1.1224;
81958884382536;39.7354;-16.8238;0.8540;
81958894382536;39.7720;-16.8116;0.8906;
81958904382536;39.8696;-16.8482;0.8906;
81958914382536;40.0038;-16.8604;0.8174;
81958924382536;39.9184;-16.8970;1.0126;
81958934382536;39.9184;-16.8970;1.1224;
81958944382536;40.0038;-16.8360;1.1224;
81958954382536;40.1136;-16.8726;1.0126;
81958964382536;39.8208;-16.8604;1.3176;
81958974382536;39.8696;-16.8360;1.3054;
81958984382536;39.8208;-16.8238;1.2932;
81958994382536;39.7476;-16.8360;1.2688;
81959004382536;39.7720;-16.7750;1.1956;
81959014382536;39.8818;-16.7750;1.0248;
81959024382536;39.9306;-16.7872;0.9394;
81959034382536;39.9672;-16.7750;0.9150;
81959044382536;40.2356;-16.7384;0.7442;
81959054382536;40.1868;-16.8238;0.6954;
81959064382536;40.2478;-16.7872;0.6588;
81959074382536;40.2112;-16.7750;0.7808;
81959084382536;40.2356;-16.8116;0.7930;
81959094382536;40.2600;-16.7750;0.7930;
81959104382536;40.0526;-16.7994;1.0004;
81959114382536;39.9550;-16.8116;1.0980;
81959124382536;39.7720;-16.8360;1.1102;
81959134382536;39.8208;-16.7994;1.0492;
81959144382536;39.8330;-16.8238;1.0126;
81959154382536;39.9306;-16.8604;0.7930;
81959164382536;39.9306;-16.8726;0.6832;
81959174382536;39.8208;-16.9458;0.7076;
81959184382536;39.8818;-17.0556;0.5856;
81959194382536;39.7110;-17.0922;0.7686;
81959204382536;39.5280;-17.1776;0.9638;
81959214382536;39.2962;-17.2386;1.1712;
81959224382536;39.0034;-17.3728;1.4274;
81959234382536;38.7228;-17.4582;1.7446;
81959244382536;38.6740;-17.5680;1.8056;
81959254382536;38.5520;-17.6168;1.9032;
81959264382536;38.5032;-17.6046;1.8910;
81959274382536;38.6008;-17.6778;1.6348;
81959284382536;38.7594;-17.7144;1.4030;
81959294382536;38.9302;-17.7876;1.1224;
81959304382536;39.0888;-17.7998;0.8052;
81959314382536;39.1986;-17.7998;0.5124;
81959324382536;39.1742;-17.8242;0.4514;
81959334382536;39.1742;-17.8486;0.4026;
81959344382536;39.0766;-17.9584;0.3294;
81959354382536;39.0400;-17.9706;0.2684;
81959364382536;39.0522;-18.0072;0.2440;
81959374382536;39.0034;-18.0194;0.1464;
81959384382536;39.0278;-18.0316;0.1098;
81959394382536;39.0888;-18.0804;0.1586;
81959404382536;39.0644;-18.0804;0.1708;
81959414382536;39.0766;-18.1414;0.0000;
81959424382536;39.1620;-18.1414;0.0488;
81959434382536;39.1254;-18.1658;0.0854;
81959444382536;39.0400;-18.1902;0.1220;
81959454382536;38.9668;-18.2268;0.2928;
81959464382536;39.0156;-18.2634;0.3172;
81959474382536;39.0034;-18.2512;0.1830;
81959484382536;38.9668;-18.2634;0.2806;
81959494382536;39.0278;-18.2146;0.3294;
81959504382536;39.0766;-18.2390;0.1830;
81959514382536;39.0644;-18.2634;0.1098;
81959524382536;39.1498;-18.2756;-0.0122;
81959534382536;39.2840;-18.2512;-0.2196;
81959544382536;39.0766;-18.2756;-0.1708;
81959554382536;39.0156;-18.3000;0.0366;
81959564382536;38.9668;-18.3854;0.0122;
81959574382536;38.8692;-18.4586;0.0488;
81959584382536;38.6618;-18.4708;0.3660;
81959594382536;38.4788;-18.5074;0.5490;
81959604382536;38.1494;-18.5318;0.9638;
81959614382536;37.8810;-18.5684;1.3298;
81959624382536;37.9176;-18.5928;1.3298;
81959634382536;38.0030;-18.6172;1.0858;
81959644382536;38.1128;-18.5562;0.9394;
81959654382536;38.1738;-18.5684;0.9394;
81959664382536;38.3446;-18.6294;0.6832;
81959674382536;38.5032;-18.5806;0.5368;
81959684382536;38.7594;-18.6172;0.2074;
81959694382536;39.0888;-18.6294;-0.1586;
81959704382536;39.2596;-18.6172;-0.2806;
81959714382536;39.3206;-18.6050;-0.2318;
81959724382536;39.3816;-18.6416;-0.2318;
81959734382536;39.4304;-18.6172;-0.2928;
81959744382536;39.5402;-18.5318;-0.2928;
81959754382536;39.7232;-18.5440;-0.3050;
81959764382536;39.7232;-18.5318;-0.2196;
81959774382536;39.6134;-18.4952;0.1342;
81959784382536;39.4914;-18.4464;0.4758;
81959794382536;39.3206;-18.4586;0.8296;
81959804382536;39.1986;-18.4830;1.1834;
81959814382536;39.1132;-18.4342;1.6592;
81959824382536;38.8082;-18.4708;2.2204;
81959834382536;38.4910;-18.4952;2.7450;
81959844382536;38.4056;-18.4220;3.2940;
81959854382536;38.2226;-18.3854;3.6966;
81959864382536;38.1494;-18.3610;4.0016;
81959874382536;38.1616;-18.2878;4.2822;
81959884382536;38.1006;-18.1658;4.5018;
81959894382536;38.0274;-18.1170;4.6360;
81959904382536;38.2958;-17.9828;4.6848;
81959914382536;38.5154;-17.8730;4.6848;
81959924382536;38.6252;-17.8120;4.5384;
81959934382536;38.8814;-17.7388;4.4530;
81959944382536;39.1132;-17.6656;4.4530;
81959954382536;39.1864;-17.5680;4.5018;
81959964382536;39.3206;-17.4460;4.7702;
81959974382536;39.4426;-17.3484;4.9654;
81959984382536;39.4548;-17.2996;4.9898;
81959994382536;39.5280;-17.1898;5.1484;
81960004382536;39.6500;-17.0922;5.3558;
81960014382536;39.7842;-16.9336;5.3192;
81960024382536;39.8452;-16.8360;5.3192;
81960034382536;40.0404;-16.6896;5.3192;
81960044382536;40.1136;-16.6042;5.2094;
81960054382536;40.1258;-16.5188;5.2948;
81960064382536;40.1624;-16.3846;5.5510;
81960074382536;40.2722;-16.2260;5.5876;
81960084382536;40.1868;-16.0918;5.7584;
81960094382536;40.2356;-15.9942;5.9414;
81960104382536;40.2966;-15.8722;6.0268;
81960114382536;40.2478;-15.7746;6.0634;
81960124382536;40.3454;-15.7014;6.0512;
81960134382536;40.5162;-15.6526;5.9902;
81960144382536;40.6626;-15.5550;5.8072;
81960154382536;40.7236;-15.4818;5.7584;
81960164382536;40.9920;-15.3598;5.6242;
81960174382536;41.0530;-15.3110;5.5998;
81960184382536;41.3336;-15.2012;5.3924;
81960194382536;41.5776;-15.1280;5.2826;
81960204382536;41.7972;-15.0304;5.2094;
81960214382536;42.0290;-14.8718;4.9898;
81960224382536;42.3096;-14.7864;4.8190;
81960234382536;42.4438;-14.6766;4.7824;
81960244382536;42.4682;-14.6522;4.7458;
81960254382536;42.6024;-14.5668;4.7946;
81960264382536;42.5536;-14.4570;5.1484;
81960274382536;42.4682;-14.3960;5.3558;
81960284382536;42.4560;-14.2984;5.5876;
81960294382536;42.5292;-14.2252;5.8072;
81960304382536;42.5780;-14.1520;5.9414;
81960314382536;42.7976;-14.1032;5.8438;
81960324382536;43.0172;-14.0178;5.7950;
81960334382536;43.0416;-13.9446;5.7096;
81960344382536;43.0904;-13.8958;5.5998;
81960354382536;43.2490;-13.8104;5.6486;
81960364382536;43.3344;-13.7616;5.6730;
81960374382536;43.2368;-13.6762;5.7218;
81960384382536;43.1148;-13.6030;5.9536;
81960394382536;43.0416;-13.4932;6.2464;
81960404382536;42.9440;-13.4200;6.4050;
81960414382536;42.9562;-13.3224;6.5636;
81960424382536;43.0172;-13.2248;6.5880;
81960434382536;43.0172;-13.1272;6.6002;
81960444382536;43.0660;-13.0052;6.6124;
81960454382536;43.2002;-12.9564;6.6368;
81960464382536;43.2978;-12.8832;6.6246;
81960474382536;43.2490;-12.7124;6.7710;
81960484382536;43.3100;-12.5660;6.9418;
81960494382536;43.3100;-12.4196;7.1858;
81960504382536;43.2612;-12.2610;7.4420;
81960514382536;43.2368;-12.1024;7.7714;
81960524382536;43.1880;-11.9560;7.9666;
81960534382536;43.1758;-11.7486;8.0642;
81960544382536;43.1880;-11.5168;8.2472;
81960554382536;43.2612;-11.4070;8.4180;
81960564382536;43.2246;-11.2362;8.6254;
81960574382536;43.3832;-11.0288;8.6864;
81960584382536;43.4442;-10.8702;8.9182;
81960594382536;43.4320;-10.7116;9.0280;
81960604382536;43.4320;-10.5408;9.2476;
81960614382536;43.5784;-10.3700;9.4062;
81960624382536;43.6394;-10.2358;9.4916;
81960634382536;43.7370;-10.0162;9.5160;
81960644382536;43.9566;-9.8454;9.4062;
81960654382536;43.9932;-9.6990;9.3574;
81960664382536;44.1152;-9.5526;9.1500;
81960674382536;44.4202;-9.4184;8.8694;
81960684382536;44.6520;-9.3086;8.6376;
81960694382536;44.5910;-9.2598;8.5766;
81960704382536;44.6886;-9.1744;8.5278;
81960714382536;44.7252;-9.1378;8.4424;
81960724382536;44.6642;-9.0768;8.3936;
81960734382536;44.5666;-9.0646;8.4058;
81960744382536;44.6642;-8.9914;8.4546;
81960754382536;44.5178;-8.9548;8.5278;
81960764382536;44.4934;-8.9304;8.5644;
81960774382536;44.5910;-8.8816;8.5644;
81960784382536;44.5300;-8.8816;8.5644;
81960794382536;44.5422;-8.8816;8.4546;
81960804382536;44.6520;-8.9060;8.3570;
81960814382536;44.7008;-8.8816;8.2960;
81960824382536;44.6032;-8.9182;8.2106;
81960834382536;44.7130;-8.8816;8.1008;
81960844382536;44.7374;-8.8450;8.0276;
81960854382536;44.6276;-8.8206;7.9666;
81960864382536;44.5178;-8.7840;7.9666;
81960874382536;44.4324;-8.7962;8.0398;
81960884382536;44.1884;-8.8084;8.1008;
81960894382536;44.2494;-8.7596;8.0154;
81960904382536;44.3470;-8.7474;7.8324;
81960914382536;44.3226;-8.7718;7.6372;
81960924382536;44.3470;-8.7474;7.4542;
81960934382536;44.3714;-8.7840;7.3810;
81960944382536;44.5178;-8.7718;7.1004;
81960954382536;44.7008;-8.6986;6.8686;
81960964382536;44.9814;-8.6010;6.5392;
81960974382536;45.1278;-8.5766;6.2098;
81960984382536;45.1034;-8.5522;6.1488;
81960994382536;45.0790;-8.5644;6.0634;
81961004382536;45.1156;-8.5400;5.9414;
81961014382536;45.1400;-8.5034;5.7950;
81961024382536;45.1034;-8.4546;5.6242;
81961034382536;44.9814;-8.4302;5.4290;
81961044382536;44.8960;-8.4302;5.3314;
81961054382536;44.6764;-8.3936;5.4656;
81961064382536;44.7008;-8.3570;5.2826;
81961074382536;44.7496;-8.2594;5.1972;
81961084382536;44.6520;-8.1618;5.2948;
81961094382536;44.6642;-8.0154;5.2338;
81961104382536;44.6520;-7.8934;5.3436;
81961114382536;44.5666;-7.8080;5.4168;
81961124382536;44.4934;-7.6738;5.5998;
81961134382536;44.4934;-7.5762;5.5388;
81961144382536;44.2982;-7.4420;5.8072;
81961154382536;44.1396;-7.3078;6.1244;
81961164382536;44.1030;-7.1858;6.2220;
81961174382536;44.0054;-7.1248;6.3074;
81961184382536;43.9322;-7.0028;6.4050;
81961194382536;43.9566;-6.8564;6.5880;
81961204382536;43.9078;-6.7588;6.6002;
81961214382536;43.8590;-6.6368;6.6978;
81961224382536;44.0054;-6.4904;6.5636;
81961234382536;44.1640;-6.4050;6.2952;
81961244382536;44.3226;-6.2830;6.0878;
81961254382536;44.5544;-6.1000;5.9658;
81961264382536;44.7618;-6.0390;5.7706;
81961274382536;44.9936;-5.9048;5.5632;
81961284382536;45.2254;-5.7950;5.4656;
81961294382536;45.3230;-5.6974;5.5022;
81961304382536;45.3962;-5.6364;5.5144;
81961314382536;45.4084;-5.5022;5.6364;
81961324382536;45.3230;-5.4900;5.7218;
81961334382536;45.1644;-5.4900;5.9048;
81961344382536;45.1888;-5.4168;6.0512;
81961354382536;45.2132;-5.3802;6.0512;
81961364382536;45.2254;-5.3680;5.9780;
81961374382536;45.4694;-5.2826;5.8072;
81961384382536;45.4938;-5.2094;5.8804;
81961394382536;45.5792;-5.1972;5.8194;
81961404382536;45.6768;-5.1240;5.7706;
81961414382536;45.8842;-5.0752;5.6120;
81961424382536;45.9086;-5.0142;5.6120;
81961434382536;45.8842;-5.0020;5.7584;
81961444382536;45.8598;-4.9044;5.9658;
81961454382536;45.6646;-4.8556;6.2586;
81961464382536;45.5426;-4.7946;6.4294;
81961474382536;45.5182;-4.6726;6.6734;
81961484382536;45.5304;-4.5994;6.8198;
81961494382536;45.3962;-4.5140;7.1004;
81961504382536;45.4938;-4.4652;6.9906;
81961514382536;45.4450;-4.4652;6.9052;
81961524382536;45.3840;-4.5262;6.7832;
81961534382536;45.3474;-4.5750;6.5636;
81961544382536;45.4572;-4.6116;6.4172;
81961554382536;45.4084;-4.6726;6.1366;
81961564382536;45.3962;-4.6970;5.9048;
81961574382536;45.2742;-4.7214;5.8560;
81961584382536;44.9570;-4.7458;6.1976;
81961594382536;44.8472;-4.7702;6.3318;
81961604382536;44.7862;-4.7336;6.5026;
81961614382536;44.7740;-4.7458;6.7466;
81961624382536;44.7130;-4.7702;6.7222;
81961634382536;44.6642;-4.8190;6.8564;
81961644382536;44.7008;-4.8800;6.8930;
81961654382536;44.7496;-4.9288;6.8320;
81961664382536;44.7496;-4.9776;6.7222;
81961674382536;44.8228;-4.9532;6.7344;
81961684382536;44.8228;-5.0020;6.7832;
81961694382536;45.0546;-4.8922;6.6734;
81961704382536;45.2132;-4.8678;6.7832;
81961714382536;45.4328;-4.7824;6.6856;
81961724382536;45.5670;-4.7214;6.7588;
81961734382536;45.7744;-4.6604;6.7954;
81961744382536;45.9086;-4.6360;6.8686;
81961754382536;46.0306;-4.5384;6.8930;
81961764382536;46.2136;-4.4774;6.9906;
81961774382536;46.1282;-4.5628;7.0638;
81961784382536;46.1038;-4.5872;7.0272;
81961794382536;46.0916;-4.6482;7.0394;
81961804382536;45.7622;-4.7214;7.1004;
81961814382536;45.6158;-4.7336;7.1248;
81961824382536;45.5304;-4.7214;7.1126;
81961834382536;45.5060;-4.7458;7.1370;
81961844382536;45.3596;-4.7580;7.0150;
81961854382536;45.3474;-4.6848;7.0516;
81961864382536;45.3352;-4.6238;7.2102;
81961874382536;45.1766;-4.5750;7.4542;
81961884382536;45.4206;-4.4286;7.6250;
81961894382536;45.4938;-4.3676;7.7104;
81961904382536;45.5670;-4.3188;7.7592;
81961914382536;45.4694;-4.3066;8.0276;
81961924382536;45.4450;-4.2090;8.3326;
81961934382536;45.2132;-5.8804;8.1862;
81961944382536;44.9326;-5.8438;8.4912;
81961954382536;44.8960;-5.7950;8.7108;
81961964382536;44.7740;-5.8194;8.9182;
81961974382536;44.7130;-5.8072;9.0280;
81961984382536;44.8594;-5.7950;8.9670;
81961994382536;45.0180;-5.7096;8.8084;
81962004382536;45.0302;-5.7218;8.7474;
81962014382536;45.1888;-5.6852;8.5400;
81962024382536;45.3840;-5.6608;8.4668;
81962034382536;45.3352;-5.6486;8.4180;
81962044382536;45.2986;-5.6364;8.4912;
81962054382536;45.2376;-5.6242;8.6376;
81962064382536;45.0790;-5.6242;8.7474;
81962074382536;45.0180;-5.6364;8.8084;
81962084382536;45.0546;-5.6120;8.7718;
81962094382536;45.2254;-5.6364;8.8084;
81962104382536;45.3352;-5.6364;8.5766;
81962114382536;45.4572;-5.6730;8.5766;
81962124382536;45.4450;-5.7096;8.6376;
81962134382536;45.3474;-5.7462;8.7962;
81962144382536;46.1526;-15.5184;8.1984;
81962154382536;46.0672;-15.5916;8.3936;
81962164382536;46.0916;-15.6770;8.4424;
81962174382536;46.0550;-15.7014;8.4790;
81962184382536;46.0062;-15.8234;8.6254;
81962194382536;45.9574;-15.8966;8.6376;
81962204382536;46.0062;-15.9820;8.5400;
81962214382536;46.1770;-16.0430;8.2472;
81962224382536;46.3356;-16.1162;7.8690;
81962234382536;46.4210;-16.2138;7.6616;
81962244382536;46.4454;-16.2992;7.7104;
81962254382536;46.4210;-16.3968;7.7104;
81962264382536;46.3478;-16.4090;7.7470;
81962274382536;46.3234;-16.5310;7.7836;
81962284382536;46.2258;-16.6042;7.7714;
81962294382536;46.1404;-16.6774;7.8812;
81962304382536;46.0428;-16.7628;7.9788;
81962314382536;45.8476;-16.8604;8.2106;
81962324382536;45.5914;-16.9336;8.3692;
81962334382536;45.3596;-17.0312;8.4546;
81962344382536;45.2132;-17.1532;8.5278;
81962354382536;44.9448;-17.1532;8.7230;
81962364382536;44.8350;-17.1654;8.8450;
81962374382536;44.7252;-17.1776;8.9792;
81962384382536;44.4934;-17.1898;9.2110;
81962394382536;44.4568;-17.1288;9.2354;
81962404382536;44.6398;-17.1044;8.9670;
81962414382536;44.7984;-17.0556;8.8572;
81962424382536;44.9448;-16.9580;8.6986;
81962434382536;45.2986;-16.8726;8.2350;
81962444382536;45.8476;-19.8250;7.4786;
81962454382536;46.0794;-19.7884;7.0760;
81962464382536;46.3234;-19.7030;6.7710;
81962474382536;46.4820;-19.6786;6.5636;
81962484382536;46.4820;-19.6176;6.5514;
81962494382536;46.5186;-19.5566;6.4538;
81962504382536;46.5674;-19.5078;6.4782;
81962514382536;46.4698;-19.4712;6.6368;
81962524382536;46.2746;-19.4956;6.8808;
81962534382536;46.1770;-19.4834;7.0394;
81962544382536;45.9940;-19.4590;7.2834;
81962554382536;26.2422;-5.8926;1.6104;
81962564382536;26.0958;-5.8682;1.8422;
81962574382536;25.8762;-5.9048;2.0740;
81962584382536;25.7542;-5.9536;2.2082;
81962594382536;25.6932;-6.0390;2.3790;
81962604382536;25.7298;-6.1000;2.3058;
81962614382536;25.7786;-6.1610;2.3058;
81962624382536;26.0226;-6.2342;1.9642;
81962634382536;26.2300;-6.3074;1.5982;
81962644382536;26.4862;-6.3806;1.2322;
81962654382536;26.8034;-6.4172;0.8174;
81962664382536;26.9254;-6.4782;0.5734;
81962674382536;26.9254;-6.4782;0.3294;
81962684382536;26.9254;-6.5148;0.2196;
81962694382536;26.8766;-6.5392;0.1464;
81962704382536;26.6204;-6.6612;0.3416;
81962714382536;26.4984;-6.7344;0.4880;
81962724382536;26.3398;-6.8320;0.5124;
81962734382536;26.1324;-6.9784;0.6710;
81962744382536;25.9982;-7.0638;0.6466;
81962754382536;25.9372;-7.1614;0.6222;
81962764382536;25.9006;-7.2102;0.6588;
81962774382536;25.7542;-7.3444;0.7442;
81962784382536;25.8396;-7.2712;0.5856;
81962794382536;25.8518;-7.2346;0.4880;
81962804382536;25.8030;-7.2224;0.4880;
81962814382536;25.8396;-7.1736;0.4270;
81962824382536;25.8274;-7.1492;0.4636;
81962834382536;25.8762;-7.0882;0.4758;
81962844382536;25.9494;-7.0394;0.3538;
81962854382536;26.0592;-6.9052;0.1830;
81962864382536;26.0836;-6.9296;0.2440;
81962874382536;26.1202;-6.8930;0.2684;
81962884382536;26.1934;-6.8564;0.1952;
81962894382536;26.1934;-6.8442;0.2196;
81962904382536;26.1934;-6.8198;0.1586;
81962914382536;26.2300;-6.7954;0.1098;
81962924382536;26.2056;-6.7344;0.2440;
81962934382536;26.1812;-6.7344;0.2928;
81962944382536;26.0592;-6.7222;0.3904;
81962954382536;25.8884;-6.7466;0.5856;
81962964382536;25.7420;-6.7344;0.8418;
81962974382536;25.5712;-6.6856;1.0736;
81962984382536;25.3150;-6.7100;1.4030;
81962994382536;44.7984;-21.2890;7.4176;
81963004382536;44.6642;-21.3500;7.5396;
81963014382536;44.5422;-21.4232;7.6982;
81963024382536;44.6276;-21.3988;7.6128;
81963034382536;44.7252;-21.3866;7.4786;
81963044382536;44.8228;-21.3866;7.2956;
81963054382536;24.5098;-7.3200;1.1224;
81963064382536;24.6440;-7.3200;0.9516;
81963074382536;24.6562;-7.3444;0.8540;
81963084382536;24.6684;-7.3688;0.7930;
81963094382536;24.8026;-7.3932;0.5978;
81963104382536;24.8270;-7.4298;0.4758;
81963114382536;24.8636;-7.5030;0.3416;
81963124382536;24.8026;-7.5640;0.3904;
81963134382536;24.7904;-7.5518;0.3782;
81963144382536;24.7660;-7.5884;0.2318;
81963154382536;24.8392;-7.6006;0.0610;
81963164382536;24.9368;-7.5762;-0.0976;
81963174382536;24.9612;-7.5518;-0.1952;
81963184382536;25.0100;-7.5030;-0.2684;
81963194382536;25.2296;-7.4542;-0.6100;
81963204382536;25.3150;-7.4176;-0.7442;
81963214382536;25.3882;-7.3932;-0.7930;
81963224382536;25.4980;-7.3200;-0.7930;
81963234382536;25.4614;-7.2590;-0.7930;
81963244382536;25.4248;-7.1370;-0.7320;
81963254382536;25.3882;-7.0394;-0.7198;
81963264382536;25.3638;-6.9418;-0.6954;
81963274382536;25.1442;-6.7954;-0.3782;
81963284382536;25.0954;-6.6124;-0.3172;
81963294382536;24.9856;-6.4904;-0.2318;
81963304382536;24.9734;-6.3562;-0.2440;
81963314382536;25.0710;-6.2220;-0.3172;
81963324382536;25.0954;-6.1366;-0.3660;
81963334382536;25.3028;-5.9902;-0.4880;
81963344382536;25.3882;-5.9048;-0.5978;
81963354382536;25.4736;-5.8072;-0.7564;
81963364382536;25.5224;-5.7462;-0.8296;
81963374382536;25.5102;-5.6608;-0.8906;
81963384382536;25.6200;-5.5388;-1.0004;
81963394382536;25.5834;-5.4290;-0.9638;
81963404382536;25.4492;-5.3314;-0.9028;
81963414382536;25.3272;-5.2948;-0.7686;
81963424382536;25.2662;-5.1972;-0.7198;
81963434382536;25.0954;-5.1728;-0.4270;
81963444382536;24.9856;-5.1484;-0.2928;
81963454382536;24.9978;-5.1362;-0.2440;
81963464382536;24.7660;-5.1240;-0.0366;
81963474382536;24.6074;-5.1850;0.0610;
81963484382536;24.7050;-5.2094;-0.0366;
81963494382536;24.7172;-5.1850;-0.0976;
81963504382536;24.6562;-5.1972;-0.0732;
81963514382536;24.8270;-5.1850;-0.3172;
81963524382536;24.9978;-5.2216;-0.6100;
81963534382536;25.0710;-5.2582;-0.7320;
81963544382536;25.3516;-5.3070;-1.1102;
81963554382536;25.8274;-5.2948;-1.6348;
81963564382536;46.5674;-21.1914;3.9772;
81963574382536;46.6162;-21.2402;3.8308;
81963584382536;46.8846;-21.2890;3.5014;
81963594382536;46.8724;-21.3256;3.4404;
81963604382536;46.8358;-21.3256;3.5258;
81963614382536;46.8724;-21.3256;3.5624;
81963624382536;46.8236;-21.3256;3.7576;
81963634382536;46.6040;-21.3500;4.0504;
81963644382536;46.5186;-21.3378;4.3066;
81963654382536;46.5064;-21.3256;4.4652;
81963664382536;46.4210;-21.3378;4.7702;
81963674382536;46.4210;-21.3500;4.9410;
81963684382536;46.4210;-21.3622;5.0630;
81963694382536;46.3844;-21.3622;5.1240;
81963704382536;46.2502;-21.4110;5.2948;
81963714382536;37.1856;-13.6396;2.8548;
81963724382536;36.9050;-13.6640;3.0744;
81963734382536;36.6366;-13.7616;3.2696;
81963744382536;36.3072;-13.7982;3.6478;
81963754382536;36.2828;-13.7738;3.6844;
81963764382536;36.2462;-13.7616;3.7576;
81963774382536;36.2218;-13.7738;3.8552;
81963784382536;36.2462;-13.7128;3.8918;
81963794382536;36.3194;-13.7006;3.9528;
81963804382536;36.4048;-13.6640;3.9406;
81963814382536;36.5024;-13.6030;4.0504;
81963824382536;36.5756;-13.5298;4.0138;
81963834382536;36.3560;-13.5298;4.3066;
81963844382536;36.1608;-13.5298;4.4530;
81963854382536;35.9412;-13.5298;4.6482;
81963864382536;35.7460;-13.4932;4.8678;
81963874382536;35.5264;-13.4688;5.0264;
81963884382536;35.3312;-13.4200;5.2582;
81963894382536;35.1482;-13.3346;5.3558;
81963904382536;34.9530;-13.3102;5.5754;
81963914382536;34.7456;-13.2858;5.8438;
81963924382536;34.6480;-13.2126;6.0634;
81963934382536;34.5504;-13.1516;6.3318;
81963944382536;34.5138;-13.1638;6.4416;
81963954382536;34.5016;-13.1394;6.5026;
81963964382536;34.4894;-13.1760;6.5758;
81963974382536;34.6358;-13.1760;6.5392;
81963984382536;34.7334;-13.1882;6.3806;
81963994382536;34.7822;-13.2004;6.3074;
81964004382536;34.8798;-13.2492;6.1244;
81964014382536;35.0384;-13.2858;5.8438;
81964024382536;35.0994;-13.3590;5.7584;
81964034382536;35.0018;-13.4322;5.8072;
81964044382536;34.9530;-13.4688;5.7950;
81964054382536;34.7456;-13.5542;5.9170;
81964064382536;34.6358;-13.6396;5.9902;
81964074382536;34.6968;-13.6518;5.8438;
81964084382536;34.5138;-13.7006;6.0024;
81964094382536;34.4284;-13.7128;6.0390;
81964104382536;34.3796;-13.6518;5.9414;
81964114382536;34.4650;-13.6396;5.6730;
81964124382536;34.5626;-13.6396;5.4534;
81964134382536;34.6236;-13.6518;5.2948;
81964144382536;34.5260;-13.5786;5.2704;
81964154382536;34.3552;-13.6274;5.3192;
81964164382536;34.3064;-13.6152;5.2582;
81964174382536;34.1112;-13.6152;5.3314;
81964184382536;34.0624;-13.6762;5.3192;
81964194382536;33.8794;-13.7128;5.4778;
81964204382536;33.7330;-13.7250;5.5144;
81964214382536;33.6354;-13.7372;5.5632;
81964224382536;33.6110;-13.7738;5.5144;
81964234382536;33.5622;-13.7616;5.5510;
81964244382536;33.5134;-13.7738;5.5998;
81964254382536;33.5134;-13.7738;5.5388;
81964264382536;33.3914;-13.7616;5.7096;
81964274382536;33.3426;-13.7372;5.7096;
81964284382536;33.2328;-13.7616;5.8804;
81964294382536;33.1352;-13.7738;6.0878;
81964304382536;33.0864;-13.8104;6.1976;
81964314382536;33.1962;-13.8592;6.1000;
81964324382536;33.1962;-13.9202;6.1122;
81964334382536;33.1962;-13.9934;6.2586;
81964344382536;33.2084;-14.0666;6.3562;
81964354382536;33.2450;-14.1398;6.4660;
81964364382536;33.3792;-14.2008;6.5026;
81964374382536;33.4280;-14.2862;6.4782;
81964384382536;33.5256;-14.3838;6.4660;
81964394382536;33.5622;-14.4814;6.5758;
81964404382536;33.6964;-14.5546;6.5148;
81964414382536;33.8916;-14.6034;6.3928;
81964424382536;34.0746;-14.7254;6.2586;
81964434382536;34.1966;-14.8108;6.1244;
81964444382536;34.1844;-14.8840;6.0878;
81964454382536;34.2576;-14.9816;6.0512;
81964464382536;34.3918;-15.0426;5.9780;
81964474382536;34.5138;-15.0792;5.8682;
81964484382536;34.9164;-15.1402;5.4046;
81964494382536;43.8590;-22.9604;8.1130;
81964504382536;43.9322;-22.9970;7.9178;
81964514382536;44.1518;-23.0092;7.8080;
81964524382536;44.3104;-22.9970;7.7470;
81964534382536;44.4568;-22.9970;7.6372;
81964544382536;44.4324;-23.0458;7.7226;
81964554382536;44.3958;-23.0580;7.8202;
81964564382536;44.1152;-23.0946;8.3204;
81964574382536;44.1884;-23.1312;8.3570;
81964584382536;44.2616;-23.1312;8.4546;
81964594382536;44.3226;-23.1678;8.4424;
81964604382536;44.4568;-23.2044;8.2716;
81964614382536;44.7740;-23.1922;8.0276;
81964624382536;45.0912;-23.2166;7.6982;
81964634382536;45.4084;-23.2410;7.3444;
81964644382536;45.6402;-23.2776;7.0638;
81964654382536;45.7866;-23.3142;6.8320;
81964664382536;45.8720;-23.3386;6.7466;
81964674382536;45.9086;-23.3142;6.7222;
81964684382536;45.9208;-23.3264;6.8076;
81964694382536;45.8232;-23.3508;6.9296;
81964704382536;45.7012;-23.3386;7.1004;
81964714382536;45.6524;-23.2898;7.1980;
81964724382536;45.7256;-23.2288;7.1126;
81964734382536;45.8354;-23.1922;7.0516;
81964744382536;45.9452;-23.1434;7.0028;
81964754382536;45.9818;-23.1068;7.0882;
81964764382536;46.0184;-23.0336;7.1370;
81964774382536;46.1038;-22.9848;7.1736;
81964784382536;46.2868;-22.9116;7.1614;
81964794382536;46.3600;-22.8506;7.3322;
81964804382536;46.3478;-22.8018;7.6494;
81964814382536;46.2746;-22.7286;7.9788;
81964824382536;46.2868;-22.7164;8.1862;
81964834382536;46.3234;-22.6798;8.2960;
81964844382536;46.3600;-22.7164;8.3082;
81964854382536;46.2746;-22.7286;8.4668;
81964864382536;46.2014;-22.7286;8.5766;
81964874382536;46.1282;-22.7652;8.6132;
81964884382536;46.0916;-22.8018;8.5888;
81964894382536;46.0306;-22.8506;8.6376;
81964904382536;26.7180;-7.6982;3.4648;
81964914382536;45.7378;-23.0458;8.9426;
81964924382536;45.6280;-23.0946;9.1134;
81964934382536;45.6158;-23.1312;9.1988;
81964944382536;45.5792;-23.2532;9.2598;
81964954382536;45.5792;-23.3508;9.2598;
81964964382536;45.6036;-23.4362;9.2598;
81964974382536;45.7256;-23.5216;9.1012;
81964984382536;45.8232;-23.5948;8.8694;
81964994382536;45.8964;-23.6314;8.8206;
81965004382536;46.0184;-23.7046;8.5888;
81965014382536;46.1282;-23.7900;8.4058;
81965024382536;46.2258;-23.8266;8.2350;
81965034382536;46.2746;-23.8876;8.1496;
81965044382536;46.2746;-23.9852;8.0764;
81965054382536;46.2868;-24.0584;7.9666;
81965064382536;46.3722;-24.1316;7.8080;
81965074382536;46.4576;-24.2536;7.4786;
81965084382536;46.4210;-24.3024;7.4054;
81965094382536;46.3234;-24.3756;7.4176;
81965104382536;46.2990;-24.4244;7.3078;
81965114382536;46.3722;-24.4610;7.1004;
81965124382536;46.3600;-24.4976;6.9296;
81965134382536;46.3966;-24.4976;6.7222;
81965144382536;46.3722;-24.5098;6.6734;
81965154382536;46.4210;-24.5098;6.6856;
81965164382536;46.5552;-24.5586;6.5270;
81965174382536;46.6894;-24.5708;6.2342;
81965184382536;46.7504;-24.5586;6.1488;
81965194382536;46.7504;-24.5342;6.1488;
81965204382536;46.7504;-24.4610;6.2708;
81965214382536;46.6650;-24.4000;6.4538;
81965224382536;46.6406;-24.3512;6.5270;
81965234382536;46.5186;-24.3268;6.6856;
81965244382536;46.3234;-24.2902;7.0272;
81965254382536;46.0794;-24.2170;7.3322;
81965264382536;45.9452;-24.2170;7.6738;
81965274382536;45.7256;-24.2536;8.0764;
81965284382536;45.5060;-24.2414;8.3326;
81965294382536;45.4450;-24.2902;8.6132;
81965304382536;45.3718;-24.3268;8.7108;
81965314382536;45.5548;-24.3024;8.6254;
81965324382536;45.6524;-24.3268;8.5400;
81965334382536;45.7256;-24.4244;8.5278;
81965344382536;45.6890;-24.4610;8.5766;
81965354382536;45.7744;-24.4732;8.3448;
81965364382536;45.9818;-24.5708;8.1496;
81965374382536;46.1282;-24.6318;7.8812;
81965384382536;46.1282;-24.7416;7.8080;
81965394382536;46.0306;-24.8514;7.8568;
81965404382536;45.9818;-24.9734;7.7714;
81965414382536;46.1282;-25.0710;7.5274;
81965424382536;46.2868;-25.1930;7.1370;
81965434382536;46.3966;-25.3760;6.9418;
81965444382536;46.4576;-25.4614;6.7710;
81965454382536;46.5552;-25.5468;6.5392;
81965464382536;46.6406;-25.5834;6.3440;
81965474382536;46.6528;-25.6810;6.3440;
81965484382536;46.7382;-25.6688;6.1976;
81965494382536;46.7260;-25.7420;6.1610;
81965504382536;46.6894;-25.7664;6.1366;
81965514382536;46.5796;-25.7054;6.3074;
81965524382536;46.5308;-25.6810;6.2708;
81965534382536;46.4210;-25.6932;6.3440;
81965544382536;46.4210;-25.6688;6.3684;
81965554382536;46.4454;-25.6078;6.1488;
81965564382536;46.4332;-25.6200;6.1732;
81965574382536;46.4698;-25.5224;6.1244;
81965584382536;46.5674;-25.4370;6.0512;
81965594382536;46.6528;-25.3882;5.9536;
81965604382536;46.7382;-25.3638;5.8682;
81965614382536;46.7016;-25.2906;5.9414;
81965624382536;46.6894;-25.2174;6.0024;
81965634382536;46.7138;-25.0832;6.0390;
81965644382536;46.7504;-24.9856;6.0268;
81965654382536;46.6284;-24.8758;6.2586;
81965664382536;46.4698;-24.8026;6.5026;
81965674382536;46.4210;-24.7294;6.6002;
81965684382536;46.3600;-24.6318;6.7954;
81965694382536;46.3600;-24.5586;6.8564;
81965704382536;46.3722;-24.5098;6.9540;
81965714382536;46.2868;-24.5220;7.1004;
81965724382536;46.2136;-24.4244;7.2712;
81965734382536;46.2136;-24.3512;7.3688;
81965744382536;46.2502;-24.2414;7.4664;
81965754382536;46.2258;-24.1804;7.6494;
81965764382536;46.0916;-24.0828;7.8568;
81965774382536;46.0550;-24.0340;8.0276;
81965784382536;45.9940;-23.9364;8.2350;
81965794382536;45.8354;-23.8388;8.6498;
81965804382536;45.6402;-23.8388;9.0036;
81965814382536;45.5670;-23.8266;9.2720;
81965824382536;45.4084;-23.8510;9.5160;
81965834382536;45.2620;-23.8388;9.6990;
81965844382536;45.2620;-23.8754;9.7966;
81965854382536;45.1888;-23.8632;9.9674;
81965864382536;45.1766;-23.9242;10.0040;
81965874382536;45.2498;-23.9730;9.8698;
81965884382536;45.3962;-23.9608;9.6502;
81965894382536;45.4816;-23.9852;9.5892;
81965904382536;45.5304;-24.0340;9.5160;
81965914382536;45.6524;-24.0340;9.3940;
81965924382536;45.6890;-24.0218;9.3696;
81965934382536;45.6158;-24.0218;9.3940;
81965944382536;45.4328;-23.9852;9.6136;
81965954382536;45.3108;-23.9608;9.7600;
81965964382536;45.3230;-23.9120;9.8332;
81965974382536;45.2986;-23.8876;9.7478;
81965984382536;45.3840;-23.8388;9.6502;
81965994382536;45.4328;-23.8510;9.6014;
81966004382536;45.4938;-23.8876;9.4184;
81966014382536;45.6890;-23.8754;9.2964;
81966024382536;45.8598;-23.9120;8.9914;
81966034382536;45.9940;-23.9242;8.7474;
81966044382536;46.1160;-23.9364;8.6376;
81966054382536;46.1404;-23.9608;8.6742;
81966064382536;46.1038;-23.9852;8.7474;
81966074382536;46.1526;-23.9242;8.6498;
81966084382536;46.1770;-23.8632;8.6010;
81966094382536;46.1404;-23.8266;8.6376;
81966104382536;46.1282;-23.7778;8.6742;
81966114382536;46.2014;-23.7778;8.6742;
81966124382536;46.1404;-23.7900;8.6742;
81966134382536;46.2014;-23.7778;8.6010;
81966144382536;46.2624;-23.7290;8.5400;
81966154382536;46.2258;-23.7778;8.5766;
81966164382536;46.1526;-23.8388;8.7352;
81966174382536;46.1648;-23.8266;8.6620;
81966184382536;46.1404;-23.7900;8.6620;
81966194382536;46.0306;-23.7534;8.8084;
81966204382536;45.9696;-23.7290;8.7962;
81966214382536;46.0062;-23.7168;8.7596;
81966224382536;46.0062;-23.7412;8.6986;
81966234382536;45.9818;-23.7046;8.6498;
81966244382536;45.8842;-23.6314;8.6742;
81966254382536;45.7256;-23.5948;8.7596;
81966264382536;45.6524;-23.6070;8.7962;
81966274382536;45.7378;-23.5948;8.5522;
81966284382536;45.7866;-23.5948;8.4668;
81966294382536;45.6524;-23.5826;8.4668;
81966304382536;45.4206;-23.5704;8.5644;
81966314382536;45.3108;-23.6192;8.6010;
81966324382536;45.3840;-23.6070;8.4790;
81966334382536;45.4328;-23.6436;8.2838;
81966344382536;45.4450;-23.6680;8.2472;
81966354382536;45.3352;-23.6558;8.2228;
81966364382536;45.2986;-23.6070;8.1618;
81966374382536;45.4206;-23.6070;7.9422;
81966384382536;45.6402;-23.5826;7.5884;
81966394382536;45.7988;-23.5460;7.4664;
81966404382536;45.8476;-23.5460;7.3688;
81966414382536;45.9208;-23.4972;7.3078;
81966424382536;46.0672;-23.3996;7.1370;
81966434382536;46.1282;-23.3386;7.1126;
81966444382536;46.0062;-23.3264;7.2834;
81966454382536;45.9330;-23.3020;7.4786;
81966464382536;45.9086;-23.2532;7.5884;
81966474382536;45.8964;-23.1678;7.6616;
81966484382536;45.9086;-23.1190;7.7470;
81966494382536;45.8476;-23.1068;7.8934;
81966504382536;45.7866;-23.0824;8.0154;
81966514382536;45.7988;-23.0336;8.1374;
81966524382536;45.9696;-22.9604;8.0764;
81966534382536;46.0428;-22.8872;8.0398;
81966544382536;46.0916;-22.8262;8.0642;
81966554382536;46.1160;-22.7042;8.0520;
81966564382536;46.1404;-22.6554;8.0642;
81966574382536;46.3112;-22.5944;7.9178;
81966584382536;46.3966;-22.5700;7.9666;
81966594382536;46.2990;-22.5578;8.1740;
81966604382536;46.1404;-22.5700;8.4180;
81966614382536;45.8842;-22.5700;8.8572;
81966624382536;45.7256;-22.5700;9.1378;
81966634382536;45.6158;-22.6310;9.3208;
81966644382536;45.5182;-22.6554;9.5404;
81966654382536;45.3962;-22.6676;9.7478;
81966664382536;45.3840;-22.7286;9.7722;
81966674382536;45.5426;-22.7530;9.5892;
81966684382536;45.6402;-22.8140;9.4794;
81966694382536;45.9452;-22.8262;9.0646;
81966704382536;46.1160;-22.8750;8.8328;
81966714382536;46.3600;-22.9116;8.5522;
81966724382536;46.4454;-22.9604;8.3448;
81966734382536;46.5552;-23.0214;8.1862;
81966744382536;46.6284;-22.9848;8.0642;
81966754382536;46.6894;-22.9970;7.9910;
81966764382536;46.8480;-22.9360;7.8324;
81966774382536;46.8358;-22.9726;7.8080;
81966784382536;46.8724;-22.9238;7.9422;
81966794382536;46.6528;-22.9360;8.2106;
81966804382536;46.5552;-22.8872;8.3326;
81966814382536;46.4332;-22.8506;8.5766;
81966824382536;46.2014;-22.8872;8.9182;
81966834382536;45.9818;-22.9116;9.1500;
81966844382536;45.7500;-22.9848;9.3818;
81966854382536;45.5670;-23.0092;9.6136;
81966864382536;45.4572;-23.0824;9.6136;
81966874382536;45.4694;-23.1068;9.5770;
81966884382536;45.6158;-23.1312;9.3940;
81966894382536;45.6036;-23.2044;9.2110;
81966904382536;45.6524;-23.2654;8.9914;
81966914382536;45.6890;-23.3020;8.8572;
81966924382536;45.6646;-23.3508;8.7718;
81966934382536;45.6890;-23.4118;8.6742;
81966944382536;45.6890;-23.4484;8.7108;
81966954382536;45.5792;-23.4972;8.8450;
81966964382536;45.3718;-23.5460;9.1744;
81966974382536;45.3230;-23.5460;9.3818;
81966984382536;45.1888;-23.5460;9.5526;
81966994382536;45.1644;-23.5582;9.7112;
81967004382536;45.1400;-23.5338;9.7966;
81967014382536;45.0424;-23.5216;10.0040;
81967024382536;44.9204;-23.5216;10.1138;
81967034382536;44.9082;-23.5338;10.0650;
81967044382536;44.9448;-23.5582;9.9674;
81967054382536;44.8838;-23.6192;9.9308;
81967064382536;45.0424;-23.6802;9.7478;
81967074382536;45.1644;-23.7290;9.4794;
81967084382536;45.2132;-23.7900;9.3574;
81967094382536;45.3352;-23.8388;9.1866;
81967104382536;45.3840;-23.9120;9.0158;
81967114382536;45.3474;-24.0340;9.0402;
81967124382536;45.3230;-24.1438;9.0036;
81967134382536;45.2498;-24.2658;9.0402;
81967144382536;45.0302;-24.4000;9.2110;
81967154382536;44.7862;-24.4976;9.4794;
81967164382536;44.5788;-24.6318;9.6990;
81967174382536;44.3958;-24.7294;9.7722;
81967184382536;44.1396;-24.8026;10.0528;
81967194382536;44.1640;-24.8392;10.0284;
81967204382536;44.1518;-24.8636;9.9918;
81967214382536;44.2982;-24.8026;9.7844;
81967224382536;44.5056;-24.7416;9.5770;
81967234382536;44.7008;-24.6928;9.4062;
81967244382536;44.9936;-24.6196;9.0646;
81967254382536;45.2742;-24.5830;8.7840;
81967264382536;45.6524;-24.5586;8.2594;
81967274382536;45.8110;-24.5586;8.0642;
81967284382536;45.9452;-24.4854;7.8202;
81967294382536;46.0306;-24.4976;7.7226;
81967304382536;45.9940;-24.5098;7.7226;
81967314382536;45.9818;-24.5586;7.6494;
81967324382536;45.9208;-24.6318;7.6738;
81967334382536;45.7988;-24.6562;7.7592;
81967344382536;45.7012;-24.6684;7.9910;
81967354382536;45.5060;-24.6684;8.1740;
81967364382536;45.3596;-24.7416;8.3204;
81967374382536;45.2620;-24.7782;8.4302;
81967384382536;45.2132;-24.8270;8.4302;
81967394382536;45.2620;-24.8026;8.4302;
81967404382536;45.3108;-24.8026;8.4912;
81967414382536;45.4206;-24.7660;8.3814;
81967424382536;45.4328;-24.7782;8.3448;
81967434382536;45.4450;-24.7538;8.3936;
81967444382536;45.4938;-24.7294;8.4790;
81967454382536;45.4206;-24.6684;8.6376;
81967464382536;45.4328;-24.6684;8.6986;
81967474382536;45.4328;-24.6562;8.7230;
81967484382536;45.4450;-24.5342;8.6376;
81967494382536;45.3840;-24.5830;8.7352;
81967504382536;45.3596;-24.5098;8.7840;
81967514382536;45.4206;-24.4488;8.6620;
81967524382536;45.3962;-24.4122;8.7108;
81967534382536;45.4694;-24.3756;8.6376;
81967544382536;45.4206;-24.3024;8.6376;
81967554382536;45.3352;-24.3268;8.7352;
81967564382536;45.2620;-24.4000;8.8816;
81967574382536;45.2498;-24.3878;8.8694;
81967584382536;45.2498;-24.4122;8.8206;
81967594382536;45.3108;-24.4366;8.7108;
81967604382536;45.3352;-24.4732;8.6620;
81967614382536;45.3230;-24.4732;8.6376;
81967624382536;45.4206;-24.5098;8.5766;
81967634382536;45.4938;-24.4610;8.5400;
81967644382536;45.5182;-24.3878;8.5156;
81967654382536;45.5060;-24.3634;8.5522;
81967664382536;45.5914;-24.3268;8.5522;
81967674382536;45.5182;-24.3146;8.6742;
81967684382536;45.4816;-24.2536;8.7962;
81967694382536;45.4938;-24.2536;8.7840;
81967704382536;45.4694;-24.2414;8.7962;
81967714382536;45.4206;-24.2170;8.8572;
81967724382536;45.4816;-24.2536;8.7840;
81967734382536;45.4450;-24.2780;8.7718;
81967744382536;45.3718;-24.2902;8.8572;
81967754382536;45.4206;-24.3146;8.7962;
81967764382536;45.4816;-24.3146;8.6742;
81967774382536;45.4450;-24.3024;8.7962;
81967784382536;45.3840;-24.3146;8.9914;
81967794382536;45.3352;-24.3390;9.0768;
81967804382536;45.3840;-24.3390;9.1012;
81967814382536;45.5304;-24.2780;9.0280;
81967824382536;45.6280;-24.2658;8.9426;
81967834382536;45.7134;-24.2414;8.8694;
81967844382536;45.8598;-24.2780;8.7230;
81967854382536;45.9574;-24.3146;8.6010;
81967864382536;46.0428;-24.3024;8.4180;
81967874382536;46.0794;-24.3146;8.3814;
81967884382536;45.9208;-24.3634;8.5888;
81967894382536;45.7744;-24.4122;8.7596;
81967904382536;45.6280;-24.4732;8.9426;
81967914382536;45.4938;-24.4732;9.0890;
81967924382536;45.3718;-24.5342;9.3086;
81967934382536;45.4206;-24.5098;9.3086;
81967944382536;45.4816;-24.5708;9.3086;
81967954382536;45.5182;-24.5830;9.2964;
81967964382536;45.5304;-24.5586;9.2720;
81967974382536;45.5426;-24.5952;9.3086;
81967984382536;45.5304;-24.5586;9.3940;
81967994382536;45.5304;-24.5952;9.5526;
81968004382536;45.3230;-24.5464;9.9064;
81968014382536;45.0790;-24.5708;10.2724;
81968024382536;44.9082;-24.5586;10.5896;
81968034382536;44.8594;-24.5464;10.7726;
81968044382536;44.9326;-24.5586;10.8458;
81968054382536;44.8716;-24.5830;11.0288;
81968064382536;44.8228;-24.6074;11.1386;
81968074382536;44.7984;-24.5708;11.2606;
81968084382536;44.8716;-24.5830;11.0776;
81968094382536;44.9204;-24.5952;10.9556;
81968104382536;45.0790;-24.6440;10.8580;
81968114382536;45.0790;-24.7050;10.7970;
81968124382536;45.1034;-24.7416;10.7482;
81968134382536;45.1278;-24.7416;10.6994;
81968144382536;45.2742;-24.7538;10.5896;
81968154382536;45.2620;-24.8392;10.5530;
81968164382536;45.2498;-24.8758;10.6262;
81968174382536;45.3596;-24.8880;10.6628;
81968184382536;45.2376;-24.8636;10.7604;
81968194382536;45.3596;-24.8758;10.7238;
81968204382536;45.3108;-24.8514;10.7604;
81968214382536;45.4328;-24.8880;10.5896;
81968224382536;45.5182;-24.9246;10.4798;
81968234382536;45.6402;-24.9246;10.2968;
81968244382536;45.8110;-24.9856;10.0772;
81968254382536;45.8964;-25.0466;9.9064;
81968264382536;46.0428;-25.1076;9.6624;
81968274382536;46.1038;-25.1686;9.5648;
81968284382536;46.1648;-25.2662;9.4794;
81968294382536;46.1648;-25.3516;9.5038;
81968304382536;46.0306;-25.4614;9.5526;
81968314382536;46.0428;-25.5590;9.5770;
81968324382536;45.9940;-25.6200;9.6380;
81968334382536;45.9574;-25.7176;9.6014;
81968344382536;45.8110;-25.7908;9.6502;
81968354382536;45.6280;-25.9372;9.7112;
81968364382536;45.5426;-25.9982;9.7600;
81968374382536;45.4328;-26.1080;9.7722;
81968384382536;45.4450;-26.1568;9.8210;
81968394382536;45.3596;-26.2056;9.7844;
81968404382536;45.1888;-26.2788;9.9430;
81968414382536;45.0912;-26.3032;10.0650;
81968424382536;45.1034;-26.3276;10.1870;
81968434382536;45.1522;-26.2788;10.1260;
81968444382536;45.1766;-26.2422;10.0528;
81968454382536;45.1644;-26.2056;10.0162;
81968464382536;45.1888;-26.1934;9.9796;
81968474382536;45.1888;-26.1690;10.0040;
81968484382536;45.2742;-26.1690;9.8820;
81968494382536;45.2742;-26.1690;9.8576;
81968504382536;45.2132;-26.2056;9.8820;
81968514382536;45.1888;-26.2178;10.0040;
81968524382536;45.1644;-26.2910;10.1260;
81968534382536;45.0912;-26.2910;10.2480;
81968544382536;44.8838;-26.3398;10.4310;
81968554382536;44.7130;-26.4008;10.5774;
81968564382536;44.7374;-26.3886;10.5896;
81968574382536;44.7130;-26.4618;10.6628;
81968584382536;44.7008;-26.4740;10.6262;
81968594382536;44.6154;-26.5228;10.6140;
81968604382536;44.4568;-26.5472;10.7238;
81968614382536;44.5056;-26.6082;10.7360;
81968624382536;44.5788;-26.6570;10.6872;
81968634382536;44.6520;-26.7302;10.5774;
81968644382536;44.5910;-26.8156;10.6872;
81968654382536;44.6276;-26.8644;10.6384;
81968664382536;44.6886;-26.9620;10.6506;
81968674382536;44.7008;-27.0352;10.6872;
81968684382536;44.6642;-27.1328;10.6628;
81968694382536;44.4690;-27.2426;10.8092;
81968704382536;44.3348;-27.3646;10.7604;
81968714382536;44.1152;-27.4622;11.0288;
81968724382536;43.8102;-27.5842;11.3094;
81968734382536;43.4930;-27.6818;11.6266;
81968744382536;43.2002;-27.7306;11.8340;
81968754382536;42.9806;-27.8282;12.1024;
81968764382536;42.9196;-27.8526;12.2976;
81968774382536;42.9684;-27.9258;12.2366;
81968784382536;42.9074;-27.9868;12.4562;
81968794382536;43.0172;-28.0112;12.3830;
81968804382536;43.2124;-28.0478;12.2122;
81968814382536;43.3222;-28.1210;12.0780;
81968824382536;43.4320;-28.1942;12.0048;
81968834382536;43.5174;-28.2796;11.8340;
81968844382536;43.4564;-28.4138;11.8218;
81968854382564;43.4564;-28.5358;11.7608;
81968864382564;43.6028;-28.6334;11.5412;
81968874382564;43.6394;-28.7676;11.4558;
81968884382564;43.6028;-28.9140;11.4070;
81968894382564;43.6272;-29.0482;11.3460;
81968904382564;43.6150;-29.2190;11.3338;
81968914382564;43.5296;-29.4386;11.3826;
81968924382564;43.6150;-29.6460;11.1874;
81968934382564;43.4442;-29.8290;11.3948;
81968944382564;43.1148;-30.0364;11.7120;
81968954382564;42.7854;-30.2682;11.9560;
81968964382564;42.5048;-30.5000;12.1878;
81968974382564;42.1388;-30.7440;12.5050;
81968984382564;41.8704;-31.0002;12.7002;
81968994382564;41.6996;-31.2198;12.8222;
81969004382564;41.5654;-31.4150;12.9198;
81969014382564;41.6264;-31.5980;12.7246;
81969024382564;41.7362;-31.8054;12.5050;
81969034382564;41.9680;-31.9640;12.1512;
81969044382564;42.2242;-32.1714;11.7608;
81969054382564;42.5048;-32.3788;11.2484;
81969064382564;42.6634;-32.5496;10.8824;
81969074382564;42.7000;-32.7448;10.6506;
81969084382564;42.6512;-32.9156;10.5042;
81969094382564;42.5292;-33.1352;10.4188;
81969104382564;42.4926;-33.2816;10.2602;
81969114382564;42.3340;-33.5378;10.2236;
81969124382564;42.0290;-33.6842;10.3944;
81969134382564;41.9192;-33.8184;10.3944;
81969144382564;41.9436;-33.9526;10.1870;
81969154382564;42.0290;-34.0502;9.8210;
81969164382564;42.1754;-34.2210;9.4672;
81969174382564;42.1876;-34.3186;9.2720;
81969184382564;42.2364;-34.4528;9.0280;
81969194382564;42.2852;-34.4772;8.8328;
81969204382564;42.5048;-34.5504;8.4058;
81969214382564;42.6024;-34.6236;8.1374;
81969224382564;42.5170;-34.6846;8.0032;
81969234382564;42.6024;-34.7944;7.8202;
81969244382564;42.4682;-34.8676;7.7104;
81969254382564;42.4316;-34.9164;7.5030;
81969264382564;42.3462;-34.9286;7.4420;
81969274382564;42.2974;-34.9652;7.2224;
81969284382564;42.2974;-35.0262;7.0028;
81969294382564;42.2852;-35.0384;6.7466;
81969304382564;42.2730;-35.0018;6.5392;
81969314382564;42.1876;-34.9408;6.4050;
81969324382564;42.2974;-34.8554;6.1122;
81969334382564;42.4682;-34.7578;5.7218;
81969344382564;42.5780;-34.6968;5.3192;
81969354382564;42.7488;-34.5626;4.8434;
81969364382564;42.9562;-34.4406;4.3920;
81969374382564;43.1880;-34.2454;3.8186;
81969384382564;43.4320;-34.0868;3.2452;
81969394382564;43.6760;-33.8794;2.7084;
81969404382564;43.8224;-33.6476;2.1838;
81969414382564;43.9322;-33.4280;1.8666;
81969424382564;44.2006;-33.1352;1.2810;
81969434382564;44.2982;-32.9278;0.9272;
81969444382564;44.1396;-32.6228;0.8784;
81969454382564;44.0542;-32.3422;0.7686;
81969464382564;44.0908;-32.0250;0.6222;
81969474382564;43.9810;-31.6834;0.5246;
81969484382564;43.8590;-31.3662;0.5124;
81969494382564;43.7736;-31.0490;0.4392;
81969504382564;43.8468;-30.6952;0.2684;
81969514382564;43.7858;-30.2804;0.2562;
81969524382564;43.9444;-29.7924;0.0488;
81969534382564;43.8712;-29.3776;0.1220;
81969544382564;43.7980;-28.9628;0.1830;
81969554382564;43.7736;-28.5480;0.2074;
81969564382564;43.8590;-28.0722;0.2318;
81969574382564;43.8712;-27.5842;0.3416;
81969584382564;43.6028;-27.1450;0.7564;
81969594382564;43.6638;-26.7058;0.8174;
81969604382564;43.7736;-26.3398;0.7808;
81969614382564;43.9444;-25.8884;0.7808;
81969624382564;44.1152;-25.4248;0.7686;
81969634382564;44.4080;-25.0100;0.5734;
81969644382564;44.5788;-24.5952;0.4514;
81969654382564;44.7862;-24.2170;0.3538;
81969664382564;44.9204;-23.7778;0.2318;
81969674382564;44.9448;-23.3752;0.2806;
81969684382564;44.9936;-22.9726;0.3294;
81969694382564;44.9326;-22.5822;0.3294;
81969704382564;44.9936;-22.2040;0.3172;
81969714382564;44.9570;-21.7770;0.5246;
81969724382564;45.0058;-21.3988;0.6710;
81969734382564;45.1400;-20.9840;0.5734;
81969744382564;45.3596;-20.6302;0.5856;
81969754382564;45.4816;-20.2276;0.7564;
81969764382564;45.4572;-19.8860;0.9882;
81969774382564;45.7378;-19.5322;0.9638;
81969784382564;45.9574;-19.1906;0.9638;
81969794382564;46.1282;-18.8856;1.0736;
81969804382564;46.2868;-18.5318;1.0614;
81969814382564;46.3722;-18.1902;1.3176;
81969824382564;46.3966;-17.8730;1.5250;
81969834382564;46.5308;-17.5924;1.5494;
81969844382564;46.7870;-17.2264;1.5250;
81969854382564;46.8724;-16.9092;1.7080;
81969864382564;46.9212;-16.6042;1.9032;
81969874382564;46.9578;-16.3236;2.0496;
81969884382564;46.9944;-16.0552;2.2692;
81969894382564;46.9700;-15.8112;2.5742;
81969904382564;46.9700;-15.6160;2.9402;
81969914382564;46.9212;-15.3842;3.4038;
81969924382564;46.7626;-15.2134;3.9040;
81969934382564;46.5552;-15.0914;4.5140;
81969944382564;46.3600;-14.9450;5.2216;
81969954382564;46.2380;-14.8352;5.7340;
81969964382564;46.1526;-14.7376;6.2586;
81969974382564;45.8964;-14.6644;6.8564;
81969984382564;45.8476;-14.5912;7.2224;
81969994382564;45.8110;-14.5790;7.6006;
81970004382564;45.8354;-14.5424;7.9666;
81970014382564;45.9086;-14.5424;8.1984;
81970024382564;45.8354;-14.5302;8.4668;
81970034382564;45.7378;-14.5546;8.9548;
81970044382564;45.5548;-14.5790;9.4672;
81970054382564;45.5792;-14.6400;9.7234;
81970064382564;45.4206;-14.7132;10.1870;
81970074382564;45.2864;-14.8108;10.5042;
81970084382564;45.1278;-14.9572;10.7848;
81970094382564;45.0912;-15.0670;11.0410;
81970104382564;45.1400;-15.2378;11.2362;
81970114382564;45.0790;-15.3598;11.4314;
81970124382564;45.0180;-15.5794;11.7242;
81970134382564;45.0058;-15.7624;11.8706;
81970144382564;44.9326;-15.9088;12.0902;
81970154382564;44.8594;-16.0674;12.3830;
81970164382564;44.7008;-16.2138;12.7490;
81970174382564;44.4446;-16.3968;13.1760;
81970184382564;44.3714;-16.5920;13.3468;
81970194382564;44.4324;-16.7994;13.3712;
81970204382564;44.5422;-16.9702;13.2614;
81970214382564;44.4446;-17.1532;13.4566;
81970224382564;44.5178;-17.3850;13.4688;
81970234382564;44.5422;-17.5680;13.4566;
81970244382564;44.6276;-17.7998;13.4322;
81970254382564;44.7130;-18.0072;13.3468;
81970264382564;44.5666;-18.1902;13.6030;
81970274382564;44.4690;-18.3488;13.8714;
81970284382564;44.4202;-18.5318;13.9690;
81970294382564;44.5178;-18.6904;13.8714;
81970304382564;44.3958;-18.8124;14.0178;
81970314382564;44.3104;-18.9832;14.1764;
81970324382564;44.2128;-19.1662;14.3594;
81970334382564;44.2128;-19.3004;14.4448;
81970344382564;44.2494;-19.4102;14.3472;
81970354382564;44.1762;-19.5200;14.3716;
81970364382564;44.0420;-19.5932;14.5180;
81970374382564;44.0054;-19.7152;14.5790;
81970384382564;44.2616;-19.8250;14.3228;
81970394382564;44.4324;-19.8860;14.2252;
81970404382564;44.4568;-19.9592;14.1398;
81970414382564;44.5178;-20.0568;14.0178;
81970424382564;44.7130;-20.1422;13.7616;
81970434382564;44.9570;-20.2032;13.4200;
81970444382564;45.2498;-20.3008;13.1272;
81970454382564;45.4084;-20.3496;13.0174;
81970464382564;45.4572;-20.4228;12.8832;
81970474382564;45.5670;-20.5326;12.6514;
81970484382564;45.7744;-20.5570;12.4684;
81970494382564;45.8720;-20.6180;12.3586;
81970504382564;45.7988;-20.6912;12.5538;
81970514382564;45.7500;-20.7888;12.6758;
81970524382564;45.6280;-20.8498;12.7246;
81970534382564;45.6402;-20.9596;12.6026;
81970544382564;45.6646;-21.0084;12.5782;
81970554382564;45.6890;-21.0572;12.6026;
81970564382564;45.6524;-21.1304;12.5660;
81970574382564;45.6646;-21.1670;12.6636;
81970584382564;45.6646;-21.2036;12.6270;
81970594382564;45.7134;-21.2158;12.6148;
81970604382564;45.6524;-21.2524;12.8344;
81970614382564;45.4816;-21.2646;13.1028;
81970624382564;45.3108;-21.2646;13.4322;
81970634382564;45.1888;-21.2768;13.5786;
81970644382564;45.1034;-21.2402;13.7616;
81970654382564;44.9936;-21.2280;13.8958;
81970664382564;44.8472;-21.2158;14.0666;
81970674382564;44.7130;-21.1670;14.2618;
81970684382564;44.7496;-21.1426;14.2374;
81970694382564;44.9326;-21.0938;14.0422;
81970704382564;45.1400;-21.1060;13.7494;
81970714382564;45.2132;-21.0694;13.6762;
81970724382564;45.3474;-21.0816;13.5298;
81970734382564;45.4572;-21.0572;13.3468;
81970744382564;45.6280;-21.0816;13.2126;
81970754382564;45.7256;-21.1060;13.0906;
81970764382564;45.7500;-21.0572;12.9808;
81970774382564;45.7622;-21.0450;13.0052;
81970784382564;45.6890;-21.0328;13.0784;
81970794382564;45.7500;-21.0206;13.0174;
81970804382564;45.7622;-21.0084;12.9930;
81970814382564;45.7622;-21.0084;13.0662;
81970824382564;45.7866;-21.0206;13.0052;
81970834382564;45.7866;-21.0084;12.9808;
81970844382564;45.7988;-21.0572;13.0174;
81970854382564;45.6890;-21.0572;13.0174;
81970864382564;45.5792;-21.1060;13.2004;
81970874382564;45.4572;-21.1548;13.2736;
81970884382564;45.6402;-21.1548;12.9686;
81970894382564;45.5914;-21.1914;12.9564;
81970904382564;45.6280;-21.1792;12.9076;
81970914382564;45.6280;-21.1792;12.9808;
81970924382564;45.6280;-21.1426;13.0052;
81970934382564;45.6402;-21.1304;13.1394;
81970944382564;45.7500;-21.0572;13.1028;
81970954382564;45.8476;-20.9962;13.0906;
81970964382564;45.6036;-20.9474;13.5298;
81970974382564;45.6402;-20.8864;13.5420;
81970984382564;45.6890;-20.8010;13.6396;
81970994382564;45.8110;-20.8132;13.6030;
81971004382564;45.8598;-20.8132;13.5908;
81971014382564;45.8354;-20.8376;13.6762;
81971024382564;45.8110;-20.8132;13.7738;
81971034382564;45.7622;-20.7766;13.9202;
81971044382564;45.7988;-20.7888;13.9324;
81971054382564;45.6890;-20.7766;14.1032;
81971064382564;45.5426;-20.7766;14.2984;
81971074382564;45.5304;-20.7156;14.2740;
81971084382564;45.3840;-20.7034;14.5180;
81971094382564;45.3474;-20.7034;14.5546;
81971104382564;45.3230;-20.7400;14.6278;
81971114382564;45.4328;-20.7888;14.5424;
81971124382564;45.5548;-20.7766;14.4448;
81971134382564;45.7500;-20.8132;14.2740;
81971144382564;45.9208;-20.8986;14.0666;
81971154382564;45.9452;-20.9840;14.1032;
81971164382564;45.8842;-21.0450;14.1520;
81971174382564;45.8598;-21.0938;14.2984;
81971184382564;45.8476;-21.1060;14.2496;
81971194382564;45.7134;-21.1914;14.4814;
81971204382564;45.6036;-21.2768;14.5424;
81971214382564;45.4450;-21.3988;14.7132;
81971224382564;45.1888;-21.5208;15.0182;
81971234382564;45.0424;-21.5940;15.2500;
81971244382564;45.0180;-21.7160;15.2744;
81971254382564;44.8838;-21.8258;15.3598;
81971264382564;44.7496;-21.9844;15.5428;
81971274382564;44.6398;-22.1064;15.4696;
81971284382564;44.4080;-22.2406;15.7014;
81971294382564;44.2738;-22.3382;15.9332;
81971304382564;44.1884;-22.4480;15.9820;
81971314382564;43.9810;-22.5944;16.1040;
81971324382564;43.9810;-22.7286;16.0796;
81971334382564;44.0542;-22.8018;15.9576;
81971344382564;44.0298;-22.8872;15.9454;
81971354382564;44.1396;-22.9116;15.9088;
81971364382564;44.2128;-23.0336;15.7502;
81971374382564;44.2982;-23.0946;15.5672;
81971384382564;44.5300;-23.0824;15.3110;
81971394382564;44.8228;-23.1312;14.9572;
81971404382564;44.9814;-23.2166;14.7498;
81971414382564;45.1278;-23.3020;14.5302;
81971424382564;45.2376;-23.3874;14.3594;
81971434382564;45.2010;-23.5338;14.2740;
81971444382564;45.2864;-23.5948;14.2618;
81971454382564;45.4206;-23.6924;14.0300;
81971464382564;45.3352;-23.8632;13.9934;
81971474382564;45.2498;-23.9486;14.0056;
81971484382564;45.2864;-24.0218;13.8104;
81971494382564;45.2132;-24.1804;13.8226;
81971504382564;45.1644;-24.3024;13.7494;
81971514382564;45.3352;-24.3756;13.3956;
81971524382564;45.4938;-24.4610;13.0906;
81971534382564;45.5792;-24.4854;12.8344;
81971544382564;45.5670;-24.5586;12.6636;
81971554382564;45.5670;-24.6318;12.5538;
81971564382564;45.6646;-24.6928;12.3830;
81971574382564;45.7866;-24.7050;12.1268;
81971584382564;45.8720;-24.7660;11.9438;
81971594382564;45.7866;-24.8636;12.0170;
81971604382564;45.6768;-24.9124;12.0170;
81971614382564;45.4938;-24.9856;12.0536;
81971624382564;45.6036;-24.9978;11.9560;
81971634382564;45.6646;-25.0344;11.7486;
81971644382564;45.6036;-25.0588;11.8096;
81971654382564;45.5060;-25.0466;11.8950;
81971664382564;45.5670;-24.9612;11.8462;
81971674382564;45.5060;-24.8514;12.0048;
81971684382564;45.4938;-24.7660;12.1024;
81971694382564;45.4816;-24.7050;12.3220;
81971704382564;45.3352;-24.6684;12.5904;
81971714382564;45.1522;-24.6196;12.9930;
81971724382564;45.0424;-24.5586;13.1394;
81971734382564;45.0912;-24.5342;13.0906;
81971744382564;45.0546;-24.5098;13.0784;
81971754382564;45.1278;-24.5342;12.9930;
81971764382564;45.1522;-24.5708;12.9198;
81971774382564;45.1644;-24.5586;12.8710;
81971784382564;45.2010;-24.5464;12.9198;
81971794382564;45.2742;-24.5098;12.8344;
81971804382564;45.2742;-24.5342;12.8832;
81971814382564;45.1766;-24.5342;13.0418;
81971824382564;45.0424;-24.6196;13.2004;
81971834382564;44.8838;-24.6806;13.3224;
81971844382564;44.7740;-24.7294;13.4322;
81971854382564;44.7496;-24.8148;13.3468;
81971864382564;44.7740;-24.8514;13.1150;
81971874382564;44.8960;-24.9124;12.8466;
81971884382564;44.9570;-24.9368;12.6880;
81971894382564;45.1034;-24.9490;12.4684;
81971904382564;45.2620;-24.8758;12.1878;
81971914382564;45.4572;-24.8148;12.0048;
81971924382564;45.5792;-24.7538;11.8950;
81971934382564;45.7256;-24.6684;11.8340;
81971944382564;45.8476;-24.6196;11.8828;
81971954382564;45.8476;-24.5586;11.9316;
81971964382564;45.9818;-24.4610;11.8584;
81971974382564;46.0672;-24.4000;11.7852;
81971984382564;46.1160;-24.3268;11.8950;
81971994382564;46.1404;-24.2536;11.9438;
81972004382564;46.1770;-24.1926;11.9438;
81972014382564;46.0428;-24.1194;12.1634;
81972024382564;45.8232;-24.0218;12.4074;
81972034382564;45.6768;-23.9486;12.6392;
81972044382564;45.4694;-23.9242;12.9930;
81972054382564;45.2376;-23.9120;13.3102;
81972064382564;45.0668;-23.8754;13.5298;
81972074382564;44.9692;-23.8510;13.6152;
81972084382564;45.0424;-23.8144;13.5664;
81972094382564;45.2376;-23.8388;13.4078;
81972104382564;45.4328;-23.8998;13.1760;
81972114382564;45.6036;-23.9242;13.0296;
81972124382564;45.7500;-23.9364;12.8222;
81972134382564;45.7988;-23.9364;12.7612;
81972144382564;45.8842;-23.9974;12.7734;
81972154382564;45.7866;-24.0218;12.9320;
81972164382564;45.4572;-24.1072;13.2614;
81972174382564;45.1644;-24.1194;13.5664;
81972184382564;45.0546;-24.0950;13.6884;
81972194382564;44.8716;-24.1316;13.9324;
81972204382564;44.6642;-24.1560;14.2496;
81972214382564;44.6154;-24.1194;14.3472;
81972224382564;44.5300;-24.1072;14.3716;
81972234382564;44.8594;-24.0828;13.9812;
81972244382564;44.9448;-24.0340;14.0788;
81972254382564;45.0668;-23.9730;13.9934;
81972264382564;45.0302;-23.9242;14.1886;
81972274382564;45.0790;-23.7778;14.1764;
81972284382564;45.2376;-23.6802;13.9690;
81972294382564;45.3962;-23.5948;13.9202;
81972304382564;45.5304;-23.5094;13.8714;
81972314382564;45.2742;-23.3996;14.2740;
81972324382564;45.3718;-23.2776;14.2252;
81972334382564;45.3718;-23.1556;14.2862;
81972344382564;45.4328;-23.0702;14.1520;
81972354382564;45.4450;-23.0214;14.2374;
81972364382564;45.3596;-23.0092;14.4692;
81972374382564;45.3230;-22.9360;14.5912;
81972384382564;45.2620;-22.8750;14.7132;
81972394382564;45.3596;-22.8262;14.6522;
81972404382564;45.5426;-22.7652;14.4326;
81972414382564;45.7134;-22.7286;14.3228;
81972424382564;45.8964;-22.6432;14.2618;
81972434382564;46.0428;-22.6066;14.1398;
81972444382564;46.1770;-22.5212;14.0666;
81972454382564;46.2136;-22.4602;13.9934;
81972464382564;46.2502;-22.3992;14.0910;
81972474382564;46.2868;-22.3504;14.1276;
81972484382564;46.1404;-22.3504;14.3716;
81972494382564;46.0184;-22.3382;14.4936;
81972504382564;45.7500;-22.3626;14.7986;
81972514382564;45.6158;-22.3260;14.9572;
81972524382564;45.5548;-22.3382;15.0182;
81972534382564;45.4084;-22.3748;15.2134;
81972544382564;45.2620;-22.3748;15.2500;
81972554382564;45.1156;-22.3748;15.3720;
81972564382564;44.9570;-22.3870;15.5794;
81972574382564;44.9326;-22.3748;15.6282;
81972584382564;45.1400;-22.3992;15.3476;
81972594382564;45.2986;-22.4114;15.1280;
81972604382564;45.3352;-22.4358;15.1158;
81972614382564;45.4816;-22.4114;14.9938;
81972624382564;45.6158;-22.4724;14.9572;
81972634382564;45.6402;-22.5822;14.9328;
81972644382564;45.7012;-22.6432;14.8230;
81972654382564;45.7012;-22.7164;14.8352;
81972664382564;45.5792;-22.7652;14.9938;
81972674382564;45.3962;-22.8750;15.2622;
81972684382564;45.3352;-22.8994;15.2988;
81972694382564;45.0668;-23.0092;15.5550;
81972704382564;44.8228;-23.0580;15.6892;
81972714382564;44.8594;-23.1190;15.5916;
81972724382564;44.8350;-23.2044;15.6770;
81972734382564;44.7130;-23.2776;15.7136;
81972744382564;44.8350;-23.3386;15.6038;
81972754382564;44.7374;-23.3874;15.6770;
81972764382564;44.5544;-23.4850;15.8722;
81972774382564;44.5544;-23.5094;15.9088;
81972784382564;44.5300;-23.6070;16.0430;
81972794382564;44.2860;-23.6314;16.2626;
81972804382564;44.0908;-23.7168;16.4090;
81972814382564;43.9932;-23.7656;16.6042;
81972824382564;43.7370;-23.8510;16.8726;
81972834382564;43.6638;-23.9120;16.9336;
81972844382564;43.5906;-23.9242;16.9336;
81972854382564;43.5784;-23.9852;16.8604;
81972864382564;43.6150;-23.9974;16.6896;
81972874382564;43.7980;-24.0462;16.4212;
81972884382564;44.0176;-24.0096;16.0796;
81972894382564;44.2860;-24.0096;15.6770;
81972904382564;44.4690;-23.9608;15.4330;
81972914382564;44.7374;-23.9486;15.0426;
81972924382564;44.9936;-23.9242;14.8230;
81972934382564;45.0424;-23.9120;14.7254;
81972944382564;45.1522;-23.8876;14.6278;
81972954382564;45.1522;-23.8266;14.7010;
81972964382564;45.0546;-23.7900;14.7498;
81972974382564;44.8716;-23.7778;14.9938;
81972984382564;44.7496;-23.7656;15.1280;
81972994382564;44.5666;-23.7168;15.3964;
81973004382564;44.3592;-23.6558;15.6282;
81973014382564;44.3104;-23.6070;15.7624;
81973024382564;44.2738;-23.5216;15.9088;
81973034382564;44.1274;-23.4484;16.1040;
81973044382564;44.1030;-23.3752;16.2382;
81973054382564;44.1518;-23.3508;16.2626;
81973064382564;44.1030;-23.3020;16.3602;
81973074382564;44.0664;-23.3142;16.5188;
81973084382564;44.2006;-23.3142;16.3968;
81973094382564;44.3348;-23.2410;16.3114;
81973104382564;44.2250;-23.2166;16.5432;
81973114382564;44.3470;-23.2044;16.5188;
81973124382564;44.3836;-23.2044;16.5432;
81973134382564;44.2982;-23.1556;16.7628;
81973144382564;44.4568;-23.1678;16.5798;
81973154382564;44.6032;-23.1312;16.3968;
81973164382564;44.5300;-23.1434;16.5798;
81973174382564;44.4934;-23.2288;16.6652;
81973184382564;44.6886;-23.3386;16.3480;
81973194382564;44.7252;-23.4850;16.2992;
81973204382564;44.8960;-23.5460;16.0308;
81973214382564;45.0790;-23.6802;15.7258;
81973224382564;44.9936;-23.8266;15.7990;
81973234382564;44.9814;-23.9486;15.7258;
81973244382564;45.0546;-24.0462;15.4696;
81973254382564;45.1034;-24.2048;15.2744;
81973264382564;45.1644;-24.2780;15.1280;
81973274382564;45.2620;-24.3512;14.8352;
81973284382564;45.1888;-24.4488;14.8962;
81973294382564;45.1766;-24.4488;14.7986;
81973304382564;45.1888;-24.4366;14.7254;
81973314382564;45.2254;-24.4366;14.7010;
81973324382564;45.2376;-24.4610;14.6644;
81973334382564;45.2254;-24.4244;14.6766;
81973344382564;45.1522;-24.4488;14.7986;
81973354382564;44.9936;-24.4122;15.0182;
81973364382564;44.8838;-24.3512;15.1646;
81973374382564;44.7374;-24.4244;15.4208;
81973384382564;44.5788;-24.4244;15.6526;
81973394382564;44.3836;-24.4488;15.8722;
81973404382564;44.3470;-24.4488;15.9942;
81973414382564;44.2738;-24.4732;16.1284;
81973424382564;44.2616;-24.4976;16.1406;
81973434382564;44.2128;-24.5464;16.1528;
81973444382564;44.2982;-24.6074;16.0308;
81973454382564;44.4202;-24.6806;15.7502;
81973464382564;44.5300;-24.8270;15.5550;
81973474382564;44.5788;-24.9124;15.3842;
81973484382564;44.5300;-24.9856;15.3598;
81973494382564;44.4324;-25.1442;15.3720;
81973504382564;44.3714;-25.2540;15.3354;
81973514382564;44.2372;-25.3516;15.3720;
81973524382564;44.2372;-25.4736;15.2866;
81973534382564;44.2128;-25.5346;15.1890;
81973544382564;44.1884;-25.6200;15.0914;
81973554382564;44.2616;-25.7542;14.8596;
81973564382564;44.3592;-25.8884;14.6034;
81973574382564;44.5422;-25.9494;14.3838;
81973584382564;44.6032;-25.9982;14.2984;
81973594382564;44.7130;-26.1080;14.1154;
81973604382564;44.5910;-26.1812;14.1642;
81973614382564;44.4934;-26.2544;14.2618;
81973624382564;44.5422;-26.2666;14.1520;
81973634382564;44.5056;-26.2910;14.1886;
81973644382564;44.5300;-26.2910;14.1032;
81973654382564;44.5422;-26.2910;13.9202;
81973664382564;44.5788;-26.3154;13.7128;
81973674382564;44.5910;-26.3032;13.7616;
81973684382564;44.6398;-26.3032;13.7128;
81973694382564;44.6398;-26.2788;13.6640;
81973704382564;44.4934;-26.2788;13.7372;
81973714382564;44.2982;-26.3154;13.8714;
81973724382564;44.1152;-26.3642;14.0788;
81973734382564;43.9322;-26.3764;14.2374;
81973744382564;43.7736;-26.4374;14.3838;
81973754382564;43.6882;-26.4740;14.3960;
81973764382564;43.6150;-26.4862;14.3960;
81973774382564;43.5418;-26.5350;14.4814;
81973784382564;43.5174;-26.5838;14.5302;
81973794382564;43.6394;-26.5472;14.4082;
81973804382564;43.6394;-26.5106;14.3472;
81973814382564;43.7248;-26.4984;14.2740;
81973824382564;43.7736;-26.4374;14.2740;
81973834382564;43.8590;-26.4130;14.1032;
81973844382564;43.8102;-26.3886;14.1886;
81973854382564;43.8346;-26.3886;14.1154;
81973864382564;43.8590;-26.4008;14.0056;
81973874382564;43.8468;-26.4008;14.0300;
81973884382564;43.8590;-26.4008;14.0300;
81973894382564;43.8346;-26.4008;14.0422;
81973904382564;43.7492;-26.3886;14.1032;
81973914382564;43.7004;-26.3398;14.2496;
81973924382564;43.8590;-26.2910;14.1398;
81973934382564;43.9200;-26.2300;14.1276;
81973944382564;43.9566;-26.1446;14.2130;
81973954382564;44.1396;-26.0958;14.0788;
81973964382564;44.2860;-26.0958;13.9568;
81973974382564;44.3714;-26.0592;13.9202;
81973984382564;44.4812;-26.0592;13.8104;
81973994382564;44.5300;-26.1324;13.7860;
81974004382564;44.5300;-26.2056;13.7250;
81974014382564;44.5422;-26.2544;13.7738;
81974024382564;44.5300;-26.3276;13.7616;
81974034382564;44.3714;-26.3642;13.9324;
81974044382564;44.2494;-26.3520;14.0422;
81974054382564;44.0542;-26.4252;14.2618;
81974064382564;44.0542;-26.4618;14.2374;
81974074382564;44.1518;-26.4618;13.9812;
81974084382564;44.1884;-26.4496;13.9324;
81974094382564;44.2494;-26.4496;13.8104;
81974104382564;44.3348;-26.4008;13.7006;
81974114382564;44.3836;-26.3642;13.6396;
81974124382564;44.4934;-26.3642;13.4566;
81974134382564;44.7374;-26.3276;13.1394;
81974144382564;44.7496;-26.2788;13.0906;
81974154382564;44.7130;-26.2300;13.1028;
81974164382564;44.5788;-26.1934;13.3102;
81974174382564;44.4812;-26.1446;13.4688;
81974184382564;44.4324;-26.1690;13.5542;
81974194382564;44.3958;-26.1690;13.6030;
81974204382564;44.4080;-26.1568;13.6884;
81974214382564;44.4080;-26.0470;13.7372;
81974224382564;44.3470;-26.0348;13.8836;
81974234382564;44.4080;-25.9860;13.9568;
81974244382564;44.5422;-25.9738;13.8592;
81974254382564;44.5788;-25.9250;13.8470;
81974264382564;44.5666;-25.8396;13.7860;
81974274382564;44.5666;-25.8030;13.8226;
81974284382564;44.3348;-25.7420;14.1032;
81974294382564;44.2128;-25.7908;14.3228;
81974304382564;44.2250;-25.7664;14.3594;
81974314382564;44.0298;-25.7786;14.5912;
81974324382564;43.8956;-25.7542;14.7132;
81974334382564;43.7492;-25.7298;14.8230;
81974344382564;43.6394;-25.7542;15.0304;
81974354382564;43.5296;-25.7542;15.0548;
81974364382564;43.6272;-25.7786;14.9450;
81974374382564;43.5296;-25.7786;15.0304;
81974384382564;43.4198;-25.7298;15.1036;
81974394382564;43.4198;-25.7054;15.1646;
81974404382564;43.4198;-25.6810;15.1768;
81974414382564;43.4808;-25.7054;15.1646;
81974424382564;43.4808;-25.6810;15.2134;
81974434382564;43.4564;-25.6566;15.3842;
81974444382564;43.3344;-25.5956;15.6282;
81974454382564;43.4808;-25.5590;15.4086;
81974464382564;43.6028;-25.5468;15.3110;
81974474382564;43.7004;-25.5346;15.1890;
81974484382564;43.7858;-25.5590;15.1158;
81974494382564;43.8956;-25.5346;14.9938;
81974504382564;44.0176;-25.5468;14.8352;
81974514382564;44.1762;-25.5468;14.5668;
81974524382564;44.3592;-25.5834;14.2374;
81974534382564;44.3226;-25.6200;14.2984;
81974544382564;44.2982;-25.6810;14.3472;
81974554382564;44.3470;-25.7420;14.2618;
81974564382564;44.3714;-25.7664;14.1398;
81974574382564;44.3592;-25.8152;14.0666;
81974584382564;44.3226;-25.9006;14.0788;
81974594382564;44.1396;-26.0104;14.2496;
81974604382564;44.0542;-26.0714;14.3228;
81974614382564;43.9810;-26.1568;14.3350;
81974624382564;43.9322;-26.2422;14.3594;
81974634382564;43.8224;-26.3032;14.3960;
81974644382564;43.8102;-26.3642;14.3106;
81974654382564;43.8346;-26.4130;14.2252;
81974664382564;43.9200;-26.4496;14.0666;
81974674382564;44.1152;-26.4496;13.8348;
81974684382564;44.2372;-26.4740;13.6030;
81974694382564;44.3348;-26.4740;13.4200;
81974704382564;44.3592;-26.4862;13.2980;
81974714382564;44.3104;-26.4496;13.3468;
81974724382564;44.2006;-26.4740;13.5054;
81974734382564;44.1396;-26.4984;13.4932;
81974744382564;44.1030;-26.4496;13.5054;
81974754382564;44.0542;-26.4862;13.5054;
81974764382564;43.9932;-26.4618;13.5664;
81974774382564;43.8712;-26.4740;13.6762;
81974784382564;43.8590;-26.4618;13.7250;
81974794382564;43.9322;-26.4252;13.6030;
81974804382564;43.9688;-26.3886;13.5542;
81974814382564;43.9688;-26.3520;13.6030;
81974824382564;44.0176;-26.3764;13.5298;
81974834382564;44.0542;-26.3886;13.4810;
81974844382564;44.1152;-26.3886;13.3468;
81974854382564;44.1762;-26.3642;13.2492;
81974864382564;44.2128;-26.3886;13.1272;
81974874382564;44.2006;-26.4862;13.1028;
81974884382564;44.1030;-26.5472;13.1760;
81974894382564;44.0420;-26.6204;13.2370;
81974904382564;44.0542;-26.6814;13.1882;
81974914382564;44.1518;-26.6814;13.1028;
81974924382564;44.2006;-26.6936;13.0784;
81974934382564;44.2738;-26.6936;13.0174;
81974944382564;44.7008;-26.6692;12.5294;
81974954382564;44.8106;-26.6570;12.3586;
81974964382564;45.0668;-26.6448;11.9926;
81974974382564;45.2986;-26.6448;11.6754;
81974984382564;45.3718;-26.6204;11.5778;
81974994382564;45.3596;-26.5960;11.5290;
81975004382564;45.2742;-26.6692;11.6022;
81975014382564;45.2498;-26.6814;11.5168;
81975024382564;44.8838;-26.7546;11.7974;
81975034382564;44.8228;-26.7546;11.8828;
81975044382564;44.6764;-26.7668;12.1024;
81975054382564;44.4324;-26.7424;12.3586;
81975064382564;44.2738;-26.7424;12.5172;
81975074382564;44.2616;-26.7546;12.5538;
81975084382564;44.2494;-26.7058;12.5050;
81975094382564;44.2006;-26.7180;12.5782;
81975104382564;44.2372;-26.6570;12.6148;
81975114382564;44.3470;-26.6692;12.4562;
81975124382564;44.4690;-26.6448;12.3098;
81975134382564;44.5788;-26.6082;12.0780;
81975144382564;44.8228;-26.5960;11.8340;
81975154382564;44.9204;-26.5594;11.6144;
81975164382564;45.0668;-26.5594;11.3948;
81975174382564;45.1644;-26.5838;11.2850;
81975184382564;45.1034;-26.6204;11.3704;
81975194382564;45.0058;-26.5838;11.5046;
81975204382564;44.9570;-26.5472;11.5656;
81975214382564;44.9814;-26.5472;11.6754;
81975224382564;44.7862;-26.5594;11.8584;
81975234382564;44.5910;-26.5350;12.1146;
81975244382564;44.4324;-26.5106;12.3220;
81975254382564;44.3592;-26.4740;12.4440;
81975264382564;44.2738;-26.4252;12.5294;
81975274382564;44.2128;-26.4496;12.6148;
81975284382564;44.1518;-26.4862;12.6636;
81975294382564;44.1884;-26.4862;12.5172;
81975304382564;44.1762;-26.4618;12.4684;
81975314382564;44.2250;-26.4984;12.4318;
81975324382564;44.2372;-26.5228;12.4318;
81975334382564;44.1274;-26.5228;12.5660;
81975344382564;44.2250;-26.4862;12.4684;
81975354382564;44.1152;-26.5106;12.5538;
81975364382564;44.0664;-26.5106;12.5416;
81975374382564;44.0176;-26.5350;12.6880;
81975384382564;44.0664;-26.5350;12.6026;
81975394382564;44.0786;-26.5228;12.5538;
81975404382564;44.0786;-26.5716;12.5782;
81975414382564;44.2250;-26.5594;12.2976;
81975424382564;44.1884;-26.5838;12.2610;
81975434382564;44.3348;-26.5960;11.9804;
81975444382564;44.4324;-26.5838;11.8950;
81975454382564;44.3592;-26.5472;11.8828;
81975464382564;44.2616;-26.5716;11.9804;
81975474382564;44.2616;-26.5472;11.9560;
81975484382564;44.3470;-26.4862;11.8340;
81975494382564;44.3470;-26.5228;11.8584;
81975504382564;44.4446;-26.5716;11.7974;
81975514382564;44.4934;-26.5960;11.7852;
81975524382564;44.4080;-26.5716;11.8584;
81975534382564;44.5666;-26.5838;11.7120;
81975544382564;44.6886;-26.5960;11.5656;
81975554382564;44.7252;-26.5594;11.5168;
81975564382564;44.6398;-26.5350;11.5778;
81975574382564;44.6764;-26.5106;11.4680;
81975584382564;44.7252;-26.4740;11.4192;
81975594382564;44.7740;-26.3886;11.3582;
81975604382564;44.9204;-26.3520;11.1630;
81975614382564;44.8838;-26.3154;11.1752;
81975624382564;44.8350;-26.2544;11.2850;
81975634382564;44.8106;-26.2788;11.3948;
81975644382564;44.7862;-26.3276;11.4070;
81975654382564;44.8472;-26.2544;11.3826;
81975664382564;45.0058;-26.2178;11.1630;
81975674382564;45.1278;-26.1568;11.0288;
81975684382564;45.2010;-26.1568;10.9434;
81975694382564;45.2986;-26.1446;10.8824;
81975704382564;45.5060;-26.1324;10.6994;
81975714382564;45.6524;-26.0958;10.4432;
81975724382564;45.8842;-26.0104;10.2114;
81975734382564;45.9086;-26.0348;10.0894;
81975744382564;45.7622;-26.0104;10.2480;
81975754382564;45.6646;-26.0226;10.3212;
81975764382564;45.6768;-25.9982;10.3456;
81975774382564;45.7012;-25.9982;10.2358;
81975784382564;45.6158;-26.0104;10.2480;
81975794382564;45.6890;-25.9860;10.1748;
81975804382564;45.6646;-25.9616;10.1748;
81975814382564;45.6768;-25.9372;10.3212;
81975824382564;45.6768;-25.9738;10.3334;
81975834382564;45.6768;-25.9860;10.3944;
81975844382564;45.5670;-25.9372;10.4798;
81975854382564;45.4450;-25.9128;10.5774;
81975864382564;45.4084;-25.9128;10.6140;
81975874382564;45.2986;-25.9494;10.7604;
81975884382564;45.2376;-25.9616;10.8214;
81975894382564;45.2254;-25.9494;10.7726;
81975904382564;45.2254;-25.9006;10.7604;
81975914382564;45.0302;-25.9128;10.9068;
81975924382564;44.8838;-25.9250;11.1020;
81975934382564;44.7984;-25.9372;11.2362;
81975944382564;44.6886;-25.9006;11.3582;
81975954382564;44.5910;-25.8518;11.4192;
81975964382564;44.4324;-25.8884;11.5534;
81975974382564;44.2494;-25.9128;11.7608;
81975984382564;44.0786;-25.9494;11.8828;
81975994382564;44.1030;-25.9494;11.9194;
81976004382564;44.2250;-25.9372;11.7486;
81976014382564;44.2494;-25.9494;11.7120;
81976024382564;44.2250;-25.9738;11.8096;
81976034382564;44.1640;-26.0348;11.9438;
81976044382564;44.2494;-26.0226;11.9560;
81976054382564;44.4202;-26.0348;11.7242;
81976064382564;44.5910;-25.9982;11.5534;
81976074382564;44.7496;-25.9616;11.2240;
81976084382564;44.7618;-25.9738;11.2240;
81976094382564;44.8472;-26.0104;11.1142;
81976104382564;44.9570;-25.9616;11.0288;
81976114382564;44.9814;-25.9250;11.0166;
81976124382564;44.9448;-25.9128;10.9922;
81976134382564;44.7374;-25.8396;11.2728;
81976144382564;44.7374;-25.8274;11.3338;
81976154382564;44.7374;-25.7908;11.4558;
81976164382564;44.8350;-25.7664;11.4314;
81976174382564;44.8350;-25.6566;11.4802;
81976184382564;44.8350;-25.6810;11.4436;
81976194382564;44.9082;-25.6322;11.2972;
81976204382564;45.1034;-25.5834;11.1752;
81976214382564;45.3718;-25.5956;10.8458;
81976224382564;45.3962;-25.6078;10.8824;
81976234382564;45.4816;-25.6078;10.8336;
81976244382564;45.3840;-25.6200;10.8824;
81976254382564;45.4328;-25.6688;10.8214;
81976264382564;45.5304;-25.6078;10.6384;
81976274382564;45.5914;-25.5956;10.6262;
81976284382564;45.5426;-25.5956;10.6506;
81976294382564;45.5426;-25.5712;10.6994;
81976304382564;45.6036;-25.4736;10.5408;
81976314382564;45.6280;-25.4492;10.4920;
81976324382564;45.8232;-25.4248;10.2846;
81976334382564;45.9696;-25.3760;10.0894;
81976344382564;45.9940;-25.3760;10.0284;
81976354382564;46.1038;-25.3760;9.8820;
81976364382564;46.1648;-25.3760;9.8088;
81976374382564;46.1892;-25.3394;9.7722;
81976384382564;46.1282;-25.3638;9.9552;
81976394382564;46.1038;-25.3760;9.9796;
81976404382564;45.9452;-25.3882;10.1870;
81976414382564;45.6402;-25.4248;10.5774;
81976424382564;45.4938;-25.4248;10.8336;
81976434382564;45.4450;-25.4126;10.9068;
81976444382564;45.3962;-25.4004;10.9312;
81976454382564;45.3230;-25.4370;10.9922;
81976464382564;45.2864;-25.4858;10.9678;
81976474382564;45.1644;-25.4736;11.0654;
81976484382564;45.0912;-25.4736;11.0776;
81976494382564;45.1034;-25.4736;11.0288;
81976504382564;45.1278;-25.4370;11.0288;
81976514382564;45.0180;-25.4736;11.0776;
81976524382564;44.8350;-25.4736;11.3216;
81976534382564;44.7130;-25.4980;11.4314;
81976544382564;44.5666;-25.5224;11.5168;
81976554382564;44.5788;-25.5468;11.5412;
81976564382564;44.6764;-25.5834;11.4436;
81976574382564;44.7496;-25.5956;11.3216;
81976584382564;44.7130;-25.6444;11.2728;
81976594382564;44.6520;-25.6322;11.3094;
81976604382564;44.7008;-25.6566;11.1752;
81976614382564;44.6886;-25.7054;11.2240;
81976624382564;44.6520;-25.6932;11.2606;
81976634382564;44.4690;-25.7420;11.4070;
81976644382564;44.2982;-25.7786;11.5534;
81976654382564;44.1030;-25.8274;11.7242;
81976664382564;43.9810;-25.9250;11.7730;
81976674382564;43.9322;-26.0226;11.9072;
81976684382564;43.8590;-26.0714;11.9072;
81976694382564;43.8102;-26.0958;11.8584;
81976704382564;43.7736;-26.1324;11.8340;
81976714382564;43.9688;-26.1324;11.5046;
81976724382564;44.0176;-26.1568;11.3338;
81976734382564;44.0908;-26.1812;11.1386;
81976744382564;44.2982;-26.1324;10.8824;
81976754382564;44.4202;-26.1080;10.5408;
81976764382564;44.5910;-26.1446;10.3090;
81976774382564;44.6520;-26.1690;10.2358;
81976784382564;44.8472;-26.1934;9.9674;
81976794382564;44.9082;-26.1812;9.9918;
81976804382564;45.0912;-26.2056;9.7966;
81976814382564;45.2010;-26.1934;9.6990;
81976824382564;45.1522;-26.2300;9.7600;
81976834382564;45.1888;-26.2422;9.7478;
81976844382564;45.1522;-26.2544;9.7600;
81976854382564;45.1522;-26.2666;9.6258;
81976864382564;45.1156;-26.2422;9.6624;
81976874382564;45.0180;-26.2178;9.5892;
81976884382564;44.8960;-26.1812;9.6502;
81976894382564;44.9448;-26.1812;9.5770;
81976904382564;45.1156;-26.1568;9.3330;
81976914382564;45.1400;-26.1446;9.2964;
81976924382564;45.1766;-26.1324;9.2720;
81976934382564;45.2010;-26.0714;9.3208;
81976944382564;45.0302;-26.0592;9.5404;
81976954382564;45.0546;-26.0592;9.6380;
81976964382564;44.9936;-26.0592;9.7600;
81976974382564;44.8838;-26.0348;9.9186;
81976984382564;44.6154;-26.0470;10.2236;
81976994382564;44.5666;-25.9738;10.2236;
81977004382564;44.5422;-25.9372;10.2114;
81977014382564;44.6276;-25.8884;10.0772;
81977024382564;44.8838;-25.8396;9.7600;
81977034382564;45.0058;-25.8396;9.5404;
81977044382564;45.1888;-25.8274;9.3330;
81977054382564;45.3352;-25.8274;9.1256;
81977064382564;45.5426;-25.7664;8.8206;
81977074382564;45.6646;-25.8030;8.7352;
81977084382564;45.8110;-25.7908;8.5766;
81977094382564;45.8842;-25.8152;8.4424;
81977104382564;45.9818;-25.8396;8.2472;
81977114382564;46.0184;-25.8640;8.1862;
81977124382564;46.0062;-25.8396;8.2106;
81977134382564;46.0916;-25.8640;8.0764;
81977144382564;46.1282;-25.9006;7.9910;
81977154382564;46.1770;-25.9250;7.9422;
81977164382564;46.1892;-25.9250;7.9788;
81977174382564;46.2380;-25.9250;7.9178;
81977184382564;46.2014;-25.9372;7.9666;
81977194382564;46.2136;-25.9494;7.9666;
81977204382564;46.1770;-26.0104;7.9178;
81977214382564;45.9208;-26.0226;8.2472;
81977224382564;45.7622;-26.0592;8.5278;
81977234382564;45.5182;-26.0714;8.7718;
81977244382564;45.2376;-26.1446;9.0646;
81977254382564;45.1400;-26.1690;9.1988;
81977264382564;44.9570;-26.2422;9.3696;
81977274382564;44.7984;-26.3032;9.4916;
81977284382564;44.6886;-26.3398;9.6502;
81977294382564;44.8106;-26.3398;9.3696;
81977304382564;44.7862;-26.3398;9.3208;
81977314382564;44.8716;-26.3886;9.2476;
81977324382564;45.0302;-26.4252;9.0158;
81977334382564;45.0546;-26.5350;8.8938;
81977344382564;45.1034;-26.5838;8.7352;
81977354382564;45.2498;-26.6204;8.4912;
81977364382564;45.4206;-26.6814;8.1374;
81977374382564;45.5792;-26.7424;7.8568;
81977384382564;45.8110;-26.8278;7.3932;
81977394382564;45.9940;-26.8400;6.9296;
81977404382564;46.0672;-26.9010;6.6612;
81977414382564;46.1404;-26.9254;6.4416;
81977424382564;46.1038;-26.9742;6.3684;
81977434382564;45.9940;-27.0718;6.3562;
81977444382564;45.8476;-27.0962;6.4416;
81977454382564;45.6524;-27.1694;6.6490;
81977464382564;45.5426;-27.2426;6.6734;
81977474382564;45.3962;-27.3158;6.7832;
81977484382564;45.2742;-27.3524;6.8198;
81977494382564;44.8716;-27.3890;7.2102;
81977504382564;44.8716;-27.4134;7.0760;
81977514382564;44.8960;-27.3768;6.9662;
81977524382564;45.0180;-27.3646;6.7100;
81977534382564;45.0302;-27.3890;6.5148;
81977544382564;45.0790;-27.3402;6.3806;
81977554382564;45.2132;-27.3036;6.1122;
81977564382564;45.1766;-27.2792;6.1366;
81977574382564;45.4328;-27.2304;5.8072;
81977584382564;45.4328;-27.1938;5.8926;
81977594382564;45.3962;-27.1572;5.9902;
81977604382564;45.2376;-27.1572;6.2586;
81977614382564;45.1400;-27.0962;6.4660;
81977624382564;44.9570;-27.0596;6.8320;
81977634382564;44.7862;-27.0230;7.1736;
81977644382564;44.8472;-26.9742;7.2346;
81977654382564;44.9082;-26.9376;7.2956;
81977664382564;45.0180;-26.8278;7.2102;
81977674382564;45.1888;-26.7546;7.1370;
81977684382564;45.3474;-26.6570;6.9418;
81977694382564;45.5548;-26.5594;6.9052;
81977704382564;45.7622;-26.4496;6.7588;
81977714382564;45.8232;-26.3520;6.7588;
81977724382564;45.9330;-26.2422;6.7100;
81977734382564;46.0062;-26.1690;6.6612;
81977744382564;46.2014;-26.0714;6.6368;
81977754382564;46.2258;-25.9982;6.7222;
81977764382564;46.3356;-25.9128;6.7832;
81977774382564;46.4942;-25.8518;6.6856;
81977784382564;46.5674;-25.8518;6.7710;
81977794382564;46.7016;-25.8152;6.7710;
81977804382564;46.7748;-25.7908;6.9662;
81977814382564;46.8114;-25.6810;7.1370;
81977824382564;46.7260;-25.7054;7.3810;
81977834382564;46.7626;-25.6566;7.4054;
81977844382564;46.7260;-25.5956;7.5518;
81977854382564;46.5918;-25.5590;7.8324;
81977864382564;46.6284;-25.5102;7.9056;
81977874382564;46.6040;-25.5346;8.0398;
81977884382564;46.6284;-25.4980;8.0032;
81977894382564;46.7138;-25.5712;8.0642;
81977904382564;46.7504;-25.5834;8.1252;
81977914382564;46.7260;-25.6200;8.3936;
81977924382564;46.8114;-25.7054;8.4668;
81977934382564;46.8724;-25.7664;8.5522;
81977944382564;46.7992;-25.7786;8.7718;
81977954382564;46.7870;-25.8030;8.9914;
81977964382564;46.7138;-25.8640;9.1744;
81977974382564;46.6284;-25.9494;9.2964;
81977984382564;46.4942;-26.0104;9.5770;
81977994382564;46.4210;-26.1080;9.6502;
81978004382564;46.3234;-26.1690;9.7844;
81978014382564;46.2014;-26.2788;9.9186;
81978024382564;46.1160;-26.4008;10.0284;
81978034382564;45.9818;-26.5472;10.0650;
81978044382564;45.8598;-26.7058;10.1626;
81978054382564;45.6158;-26.8400;10.4432;
81978064382564;45.4328;-26.9864;10.5042;
81978074382564;45.0912;-27.2060;10.7970;
81978084382564;44.8350;-27.4256;11.0044;
81978094382564;44.6398;-27.6330;11.0898;
81978104382564;44.3592;-27.8404;11.1874;
81978114382564;44.1518;-28.0112;11.3094;
81978124382564;43.9566;-28.2186;11.3216;
81978134382564;43.8224;-28.4504;11.2362;
81978144382564;43.8224;-28.6334;11.0654;
81978154382564;43.9322;-28.8042;10.7360;
81978164382564;43.9200;-28.9994;10.5408;
81978174382564;43.7248;-29.2190;10.6262;
81978184382564;43.7370;-29.4630;10.4798;
81978194382564;43.7980;-29.7192;10.2114;
81978204382564;43.8102;-29.9388;10.0894;
81978214382564;43.6638;-30.1950;10.1138;
81978224382564;43.3954;-30.4634;10.2846;
81978234382564;43.1026;-30.7562;10.4554;
81978244382564;42.9318;-31.0246;10.4798;
81978254382564;42.9562;-31.2686;10.2114;
81978264382564;42.8464;-31.5614;10.0528;
81978274382564;42.5902;-31.8420;10.0528;
81978284382564;42.3706;-32.0860;10.0040;
81978294382564;42.3828;-32.3056;9.7600;
81978304382564;42.2852;-32.5252;9.3940;
81978314382564;42.2242;-32.8058;9.0524;
81978324382564;42.0534;-33.0620;8.7596;
81978334382564;41.8460;-33.2938;8.6010;
81978344382564;41.6386;-33.5134;8.4546;
81978354382564;41.5776;-33.7818;8.0886;
81978364382564;41.4434;-34.0624;7.7226;
81978374382564;41.2848;-34.3430;7.2834;
81978384382564;41.2360;-34.6236;6.9540;
81978394382564;41.2238;-34.8188;6.5270;
81978404382564;41.1506;-35.0506;6.0878;
81978414382564;41.1994;-35.2458;5.4534;
81978424382564;41.1018;-35.5020;4.9898;
81978434382564;40.9432;-35.6240;4.6116;
81978444382564;40.8334;-35.7826;4.2822;
81978454382564;40.7236;-35.9168;3.9284;
81978464382564;40.6504;-36.0266;3.5624;
81978474382564;40.4796;-36.1608;3.3550;
81978484382564;40.3454;-36.2340;3.1964;
81978494382564;40.0038;-36.3438;3.2574;
81978504382564;39.8208;-36.3926;3.1598;
81978514382564;39.7232;-36.4658;3.0622;
81978524382564;39.6134;-36.5512;2.9646;
81978534382564;39.4182;-36.6000;2.9402;
81978544382564;39.1620;-36.6854;2.9524;
81978554382564;39.0888;-36.6732;2.8914;
81978564382564;38.9546;-36.7342;2.8914;
81978574382564;38.9546;-36.7830;2.8182;
81978584382564;39.0034;-36.7708;2.7450;
81978594382564;38.9668;-36.8196;2.7084;
81978604382564;39.1132;-36.8196;2.5010;
81978614382564;39.2962;-36.8440;2.3180;
81978624382564;39.4914;-36.8318;2.0984;
81978634382564;39.6256;-36.8684;1.8910;
81978644382564;39.8208;-36.8684;1.5982;
81978654382564;40.0160;-36.8562;1.3298;
81978664382564;40.0282;-36.8684;1.2322;
81978674382564;40.1014;-36.8440;1.1590;
81978684382564;39.9062;-36.8196;1.4274;
81978694382564;39.6744;-36.7342;1.6470;
81978704382564;39.4670;-36.7098;1.9886;
81978714382564;39.3084;-36.6854;2.2448;
81978724382564;39.1010;-36.6488;2.6230;
81978734382564;39.0522;-36.6122;2.7938;
81978744382564;39.0644;-36.5756;2.8792;
81978754382564;39.0278;-36.5146;2.9890;
81978764382564;39.1498;-36.4902;2.8914;
81978774382564;39.3450;-36.4780;2.7328;
81978784382564;39.4792;-36.4170;2.5986;
81978794382564;39.5646;-36.3560;2.5376;
81978804382564;39.7476;-36.2584;2.3668;
81978814382564;39.8208;-36.2096;2.3302;
81978824382564;39.7842;-36.1364;2.4278;
81978834382564;39.7232;-36.0876;2.5132;
81978844382564;39.7110;-36.0510;2.4766;
81978854382564;39.6866;-36.0022;2.5620;
81978864382564;39.6378;-36.0388;2.5620;
81978874382564;39.5890;-36.0388;2.6474;
81978884382564;39.5524;-36.0266;2.6718;
81978894382564;39.4914;-35.9900;2.7084;
81978904382564;39.4792;-35.9778;2.7084;
81978914382564;39.5036;-35.9046;2.6962;
81978924382564;39.4792;-35.8680;2.8304;
81978934382564;39.4548;-35.8436;2.9158;
81978944382564;39.5402;-35.7216;2.8914;
81978954382564;39.6622;-35.6606;2.7450;
81978964382564;39.7964;-35.6728;2.5986;
81978974382564;39.8696;-35.6484;2.5498;
81978984382564;39.9672;-35.6240;2.4766;
81978994382564;40.0526;-35.5996;2.4766;
81979004382564;40.0770;-35.5874;2.4156;
81979014382564;40.2112;-35.5874;2.2448;
81979024382564;40.2722;-35.5386;2.2082;
81979034382564;40.2966;-35.5264;2.2448;
81979044382564;40.4186;-35.4654;2.2692;
81979054382564;40.5284;-35.4166;2.1472;
81979064382564;40.9554;-35.3190;1.5982;
81979074382564;41.2848;-35.3068;1.0980;
81979084382564;41.6386;-35.2580;0.6710;
81979094382564;41.9314;-35.2092;0.3294;
81979104382564;42.2486;-35.1604;0.0244;
81979114382564;42.5780;-35.0994;-0.3538;
81979124382564;42.8220;-34.9896;-0.7076;
81979134382564;43.1026;-34.9286;-1.0492;
81979144382564;43.2002;-34.9042;-1.0614;
81979154382564;43.1758;-34.7944;-0.8540;
81979164382564;43.1880;-34.7090;-0.7686;
81979174382564;43.2612;-34.6114;-0.6954;
81979184382564;43.2490;-34.5748;-0.6344;
81979194382564;43.2368;-34.4894;-0.5002;
81979204382564;43.1636;-34.4528;-0.3294;
81979214382564;43.1514;-34.3796;-0.1464;
81979224382564;42.9928;-34.3308;0.1586;
81979234382564;43.0416;-34.2820;0.1342;
81979244382564;43.0782;-34.2088;0.1586;
81979254382564;43.2002;-34.1356;0.0366;
81979264382564;43.2734;-34.0624;-0.0000;
81979274382564;43.3222;-33.9770;-0.0488;
81979284382564;43.3466;-33.9160;-0.0854;
81979294382564;43.3710;-33.8916;-0.0488;
81979304382564;43.2124;-33.8550;0.1708;
81979314382564;43.2490;-33.8306;0.1098;
81979324382564;43.2856;-33.7940;0.0610;
81979334382564;43.1636;-33.7818;0.2440;
81979344382564;42.9318;-33.7452;0.5368;
81979354382564;42.7610;-33.7574;0.7686;
81979364382564;42.6756;-33.7452;0.9150;
81979374382564;42.5902;-33.6964;1.0492;
81979384382564;42.6390;-33.6476;0.9638;
81979394382564;42.5292;-33.5622;1.1834;
81979404382564;42.4194;-33.5378;1.3420;
81979414382564;42.2608;-33.4890;1.5128;
81979424382564;42.2852;-33.4768;1.5128;
81979434382564;42.2608;-33.4768;1.4884;
81979444382564;42.1266;-33.4768;1.6958;
81979454382564;42.0778;-33.4158;1.7690;
81979464382564;42.2120;-33.4158;1.6592;
81979474382564;42.2486;-33.4158;1.5494;
81979484382564;42.2730;-33.4158;1.5860;
81979494382564;42.4072;-33.4158;1.4640;
81979504382564;42.4682;-33.3792;1.4396;
81979514382564;42.4926;-33.3426;1.4030;
81979524382564;42.6146;-33.3426;1.1224;
81979534382564;42.6878;-33.3304;0.9760;
81979544382564;42.6268;-33.3304;0.9272;
81979554382564;42.6390;-33.3182;0.9028;
81979564382564;42.6878;-33.2938;0.7930;
81979574382564;42.5414;-33.2450;0.9638;
81979584382564;42.4438;-33.2450;1.0004;
81979594382564;42.5292;-33.2206;1.0126;
81979604382564;42.4682;-33.1962;1.1468;
81979614382564;42.3584;-33.1718;1.3542;
81979624382564;42.3218;-33.1230;1.5982;
81979634382564;42.2974;-33.0742;1.6836;
81979644382564;42.2730;-33.0620;1.7690;
81979654382564;42.4438;-33.0010;1.6104;
81979664382564;42.6634;-32.9400;1.3908;
81979674382564;42.7610;-32.8912;1.2566;
81979684382564;42.8952;-32.8180;1.1590;
81979694382564;43.0660;-32.7692;0.9638;
81979704382564;43.1270;-32.7692;0.8052;
81979714382564;43.2978;-32.7570;0.6222;
81979724382564;43.3588;-32.7082;0.5490;
81979734382564;43.3710;-32.7448;0.4636;
81979744382564;43.2490;-32.7814;0.6344;
81979754382564;43.1880;-32.7570;0.6588;
81979764382564;43.1636;-32.7570;0.6588;
81979774382564;43.1758;-32.7448;0.6100;
81979784382564;43.2612;-32.6960;0.4758;
81979794382564;43.2490;-32.6838;0.5002;
81979804382564;43.2002;-32.6594;0.5978;
81979814382564;43.1758;-32.6106;0.7076;
81979824382564;43.2612;-32.5008;0.6710;
81979834382564;43.2978;-32.4764;0.7076;
81979844382564;43.3100;-32.4398;0.7808;
81979854382564;43.1880;-32.4642;0.9150;
81979864382564;43.0416;-32.4520;1.0980;
81979874382564;43.0538;-32.3788;1.1346;
81979884382564;43.1148;-32.3666;1.0370;
81979894382564;43.2124;-32.3422;0.9638;
81979904382564;43.3100;-32.3544;0.8540;
81979914382564;43.3100;-32.3178;0.8906;
81979924382564;43.3954;-32.2568;0.8052;
81979934382564;43.5296;-32.1592;0.7564;
81979944382564;43.6760;-32.0616;0.7198;
81979954382564;43.6028;-32.0860;0.9272;
81979964382564;43.5296;-32.0250;1.0126;
81979974382564;43.6638;-31.9640;0.9882;
81979984382564;43.6394;-31.9274;1.0614;
81979994382564;43.6272;-31.8664;1.1590;
81980004382564;43.6028;-31.8176;1.2322;
81980014382564;43.5906;-31.8054;1.2566;
81980024382564;43.5540;-31.7810;1.3298;
81980034382564;43.5296;-31.7078;1.3176;
81980044382564;43.5662;-31.6224;1.4152;
81980054382564;43.4564;-31.6102;1.5372;
81980064382564;43.4564;-31.5736;1.5494;
81980074382564;43.5418;-31.5492;1.5128;
81980084382564;43.5296;-31.5126;1.5250;
81980094382564;43.5174;-31.4394;1.6470;
81980104382564;43.6028;-31.4150;1.6226;
81980114382564;43.7736;-31.3784;1.5616;
81980124382564;43.8590;-31.4272;1.4762;
81980134382564;43.8834;-31.3906;1.4152;
81980144382564;43.9200;-31.3662;1.3420;
81980154382564;43.9322;-31.3418;1.2810;
81980164382564;44.0542;-31.3296;1.2200;
81980174382564;44.1762;-31.3418;1.0614;
81980184382564;44.2860;-31.3174;0.9272;
81980194382564;44.3714;-31.3052;0.7564;
81980204382564;44.4812;-31.2564;0.6832;
81980214382564;44.5178;-31.2808;0.7076;
81980224382564;44.5422;-31.2808;0.7930;
81980234382564;44.6520;-31.2808;0.7442;
81980244382564;44.6032;-31.2686;0.7930;
81980254382564;44.5056;-31.2808;1.0248;
81980264382564;44.3714;-31.3174;1.2322;
81980274382564;44.1518;-31.3540;1.4518;
81980284382564;44.0298;-31.3906;1.5860;
81980294382564;43.9444;-31.3662;1.7568;
81980304382564;43.8590;-31.3418;1.8178;
81980314382564;43.6394;-31.3540;2.0984;
81980324382564;43.5540;-31.3784;2.1716;
81980334382564;43.5784;-31.3784;2.0252;
81980344382564;43.6028;-31.3662;1.9520;
81980354382564;43.7736;-31.3540;1.8422;
81980364382564;43.9322;-31.3296;1.7080;
81980374382564;43.9322;-31.3418;1.7080;
81980384382564;44.0298;-31.3662;1.6592;
81980394382564;44.1762;-31.3174;1.4274;
81980404382564;44.2372;-31.3052;1.3420;
81980414382564;44.1762;-31.2808;1.4640;
81980424382564;44.2860;-31.2686;1.3664;
81980434382564;44.3104;-31.2076;1.2688;
81980444382564;44.3470;-31.1588;1.1346;
81980454382564;44.5056;-31.1710;0.8662;
81980464382564;44.5666;-31.0978;0.7808;
81980474382564;44.6276;-31.1344;0.7198;
81980484382564;44.6886;-31.1588;0.7076;
81980494382564;44.8228;-31.1466;0.5490;
81980504382564;44.7008;-31.1832;0.6710;
81980514382564;44.5788;-31.2320;0.9516;
81980524382564;44.3592;-31.2320;1.2688;
81980534382564;44.0908;-31.2198;1.5982;
81980544382564;43.7736;-31.2686;1.9642;
81980554382564;43.3832;-31.2442;2.4400;
81980564382564;43.1148;-31.2686;2.6840;
81980574382564;42.8464;-31.2930;3.0134;
81980584382564;42.6268;-31.2442;3.3062;
81980594382564;42.6024;-31.2686;3.2574;
81980604382564;42.5414;-31.3174;3.2818;
81980614382564;42.6390;-31.3174;3.0866;
81980624382564;42.5902;-31.3784;2.9036;
81980634382564;42.7244;-31.3906;2.6352;
81980644382564;42.8098;-31.4516;2.4766;
81980654382564;42.8586;-31.5004;2.0618;
81980664382564;42.9562;-31.5980;1.7446;
81980674382564;42.8342;-31.6590;1.6836;
81980684382564;42.7976;-31.6712;1.5616;
81980694382564;42.7366;-31.7078;1.5738;
81980704382564;42.8708;-31.6590;1.5250;
81980714382564;42.8220;-31.7078;1.4884;
81980724382564;42.7732;-31.6712;1.5250;
81980734382564;42.6756;-31.6834;1.8422;
81980744382564;42.6878;-31.7078;1.8178;
81980754382564;42.6878;-31.6590;1.8300;
