Sensor: mmc5603x Magnetometer Non-wakeup
Vendor: memsic
TimestampMag [ns]; MagX [uT]; MagY [uT]; MagZ [uT]
81991602682981;45.9818;7.5884;4.0016;
81991612682981;45.9818;7.5884;4.0016;
81991624063294;45.9452;7.7104;3.8674;
81991634063294;46.0794;7.7958;3.7942;
81991644063294;46.1404;7.7958;3.6844;
81991654063294;46.2502;7.7714;3.6234;
81991664063294;46.3112;7.7958;3.6234;
81991674063294;46.2624;7.7958;3.6356;
81991684063294;46.2868;7.8568;3.6356;
81991694063294;46.3966;7.9300;3.6478;
81991704063294;46.5430;7.8812;3.5868;
81991714063294;46.4820;7.8324;3.6234;
81991724063294;46.4576;7.8690;3.7088;
81991734063294;46.4576;7.9178;3.7332;
81991744063294;46.3844;7.9178;3.8308;
81991754063294;46.5552;7.9422;3.7698;
81991764063294;46.7016;7.9422;3.7210;
81991774063294;46.7260;7.9056;3.4770;
81991784063294;46.6040;7.9544;3.6112;
81991794063294;46.6772;8.0032;3.5624;
81991804063294;46.6772;7.9910;3.5624;
81991814063294;46.5430;7.9788;3.6112;
81991824063294;46.5552;7.9544;3.5624;
81991834063294;46.4942;7.9666;3.5380;
81991844063294;46.3722;8.0154;3.5136;
81991854063294;46.3966;8.0764;3.5990;
81991864063294;46.6406;8.0886;3.3062;
81991874063294;46.7260;8.1008;3.1354;
81991884063294;46.8480;8.1618;3.0866;
81991894063294;47.0554;8.2472;2.9402;
81991904063294;47.2140;8.3082;2.8182;
81991914063294;47.1896;8.3448;2.9158;
81991924063294;47.2628;8.3570;2.9890;
81991934063294;47.2872;8.3326;2.9646;
81991944063294;47.2018;8.3570;3.1110;
81991954063294;47.2018;8.3814;3.2940;
81991964063294;47.2262;8.3570;3.2208;
81991974063294;47.1530;8.3204;3.3184;
81991984063294;47.1286;8.3448;3.3794;
81991994063294;47.1652;8.3448;3.3306;
81992004063294;47.1652;8.3570;3.2574;
81992014063294;47.1652;8.3814;3.3550;
81992024063294;47.1164;8.3570;3.3672;
81992034063294;47.1652;8.3204;3.2574;
81992044063294;47.1286;8.2716;3.3550;
81992054063294;47.2872;8.2350;3.2208;
81992064063294;47.2628;8.1740;3.2330;
81992074063294;47.5800;8.1740;2.8792;
81992084063294;47.6410;8.1374;2.9036;
81992094063294;47.5800;8.0520;2.9280;
81992104063294;47.6166;8.0154;2.9524;
81992114063294;47.5434;8.0154;3.0500;
81992124063294;47.4946;7.9666;3.1110;
81992134063294;47.2750;7.9422;3.3184;
81992144063294;47.3238;7.9788;3.4038;
81992154063294;46.9212;7.8812;3.9284;
81992164063294;46.8480;7.8324;4.0138;
81992174063294;46.8968;7.8324;4.0870;
81992184063294;47.0676;7.8324;3.9894;
81992194063294;47.0432;7.7714;3.9650;
81992204063294;47.1652;7.7836;3.8552;
81992214063294;47.3726;7.7714;3.7088;
81992224063294;47.3970;7.6982;3.6234;
81992234063294;47.5678;7.7226;3.3672;
81992244063294;47.6288;7.6616;3.2208;
81992254063294;47.6532;7.6128;3.0500;
81992264063294;47.4946;7.5762;3.1598;
81992274063294;47.5556;7.5640;3.1598;
81992284063294;47.5312;7.5152;3.2208;
81992294063294;47.4336;7.4542;3.3062;
81992304063294;47.3604;7.4054;3.3794;
81992314063294;47.2262;7.3200;3.5258;
81992324063294;47.2384;7.2346;3.4892;
81992334063294;47.0920;7.1736;3.6234;
81992344063294;46.8968;7.0516;3.7088;
81992354063294;46.7016;6.9662;3.7454;
81992364063294;46.5552;6.9296;3.6966;
81992374063294;46.5308;6.9174;3.6234;
81992384063294;46.5674;6.8442;3.5014;
81992394063294;46.6894;6.7710;3.3428;
81992404063294;46.6894;6.7588;3.3794;
81992414063294;46.7870;6.7222;3.1232;
81992424063294;46.8968;6.7344;2.9890;
81992434063294;47.0066;6.7100;2.9890;
81992444063294;47.0554;6.6124;2.8670;
81992454063294;47.1652;6.5392;2.6108;
81992464063294;47.2384;6.5026;2.4644;
81992474063294;47.2384;6.4416;2.2936;
81992484063294;47.0920;6.3928;2.2448;
81992494063294;47.0310;6.3562;2.3424;
81992504063294;47.1408;6.3440;2.2936;
81992514063294;47.1774;6.2830;2.0252;
81992524063294;47.2628;6.3196;1.9520;
81992534063294;47.2140;6.2830;1.9886;
81992544063294;47.1774;6.2708;1.9154;
81992554063294;47.0554;6.2952;1.9642;
81992564063294;47.1652;6.2952;1.8300;
81992574063294;46.8846;6.2098;2.2204;
81992584063294;46.7870;6.1610;2.1838;
81992594063294;46.7504;6.1488;2.2936;
81992604063294;46.7992;6.0756;2.2082;
81992614063294;46.7260;6.0268;2.2814;
81992624063294;46.6894;6.0024;2.3668;
81992634063294;46.7138;5.9170;2.3546;
81992644063294;46.6162;5.8682;2.3790;
81992654063294;46.8724;5.8926;1.9276;
81992664063294;46.8114;5.8194;2.0130;
81992674063294;46.7748;5.7218;2.0252;
81992684063294;46.6040;5.7462;2.3180;
81992694063294;46.5918;5.7828;2.4278;
81992704063294;46.5552;5.7706;2.4034;
81992714063294;46.6162;5.8316;2.4278;
81992724063294;46.6650;5.8926;2.4888;
81992734063294;46.7016;5.9780;2.4034;
81992744063294;46.7748;6.1000;2.2570;
81992754063294;46.8968;6.2220;2.1960;
81992764063294;46.8602;6.3196;2.0862;
81992774063294;46.7992;6.4294;2.0496;
81992784063294;46.8724;6.5758;2.1350;
81992794063294;46.8358;6.6734;2.2204;
81992804063294;46.8968;6.8198;2.1228;
81992814063294;46.9700;6.9540;2.2204;
81992824063294;46.9456;7.1004;2.3546;
81992834063294;46.7748;7.2346;2.4766;
81992844063294;46.7748;7.3932;2.5498;
81992854063294;46.7260;7.4786;2.6718;
81992864063294;46.5308;7.5762;2.7694;
81992874063294;46.4454;7.7592;2.8304;
81992884063294;46.3722;7.8812;3.0012;
81992894063294;46.2136;7.9910;3.0500;
81992904063294;46.0306;8.1374;3.1842;
81992914063294;46.0550;8.3082;3.2086;
81992924063294;45.9574;8.4180;3.2330;
81992934063294;45.8720;8.5766;3.2330;
81992944063294;45.9086;8.7352;3.1476;
81992954063294;45.7988;8.8084;3.1354;
81992964063294;45.6890;8.9304;3.1232;
81992974063294;45.7622;9.0768;3.1110;
81992984063294;46.0062;9.1866;2.9036;
81992994063294;46.0794;9.2964;2.6962;
81993004063294;46.2502;9.3940;2.5254;
81993014063294;46.4088;9.5038;2.2570;
81993024063294;46.3844;9.6258;2.2326;
81993034063294;46.4454;9.7600;2.1228;
81993044063294;46.4576;9.8210;2.1106;
81993054063294;46.4332;9.8942;2.0252;
81993064063294;46.4088;10.0040;1.8666;
81993074063294;46.4332;10.1016;1.8788;
81993084063294;46.4576;10.2114;1.6958;
81993094063294;46.5186;10.3212;1.6226;
81993104063294;46.6528;10.3944;1.3786;
81993114063294;46.6650;10.4310;1.1956;
81993124063294;46.7138;10.4920;0.9516;
81993134063294;46.7260;10.5652;0.8296;
81993144063294;46.5674;10.5896;0.9394;
81993154063294;46.4332;10.6384;0.8784;
81993164063294;46.2868;10.6384;1.0858;
81993174063294;46.2136;10.6628;1.1956;
81993184063294;46.0184;10.6872;1.2444;
81993194063294;46.1038;10.7360;1.3298;
81993204063294;46.1648;10.7970;1.4274;
81993214063294;46.1160;10.8214;1.5006;
81993224063294;46.1160;10.8458;1.5128;
81993234063294;46.0916;10.8580;1.7324;
81993244063294;46.0184;10.8946;1.7446;
81993254063294;45.9208;10.8702;1.8300;
81993264063294;45.9452;10.8946;2.0374;
81993274063294;45.7378;10.8824;2.1716;
81993284063294;45.5182;10.8580;2.2936;
81993294063294;45.5426;10.8336;2.3180;
81993304063294;45.4206;10.8214;2.3668;
81993314063294;45.4328;10.7848;2.2204;
81993324063294;45.5792;10.7482;2.0130;
81993334063294;45.7378;10.7482;1.8422;
81993344063294;45.6280;10.6750;1.8300;
81993354063294;45.6402;10.6506;1.8544;
81993364063294;45.5792;10.6506;2.0130;
81993374063294;45.4084;10.6140;2.1838;
81993384063294;45.4938;10.6262;2.3058;
81993394063294;45.4816;10.6506;2.5376;
81993404063294;45.3840;10.6384;2.7816;
81993414063294;45.1034;10.6262;3.1842;
81993424063294;45.1400;10.6506;3.3794;
81993434063294;45.0546;10.6018;3.5136;
81993444063294;44.9814;10.5652;3.5990;
81993454063294;45.0180;10.5408;3.7698;
81993464063294;44.9448;10.5042;3.8918;
81993474063294;44.7862;10.4554;4.1236;
81993484063294;44.6276;10.4310;4.4286;
81993494063294;44.6886;10.4188;4.4896;
81993504063294;44.6642;10.3944;4.5140;
81993514063294;44.7252;10.4310;4.7214;
81993524063294;44.7496;10.4188;4.8922;
81993534063294;44.8228;10.3456;4.7580;
81993544063294;44.9204;10.3334;4.7336;
81993554063294;45.0668;10.2968;4.6848;
81993564063294;45.1888;10.2602;4.5628;
81993574063294;45.2742;10.2114;4.5140;
81993584063294;45.4816;10.1992;4.5140;
81993594063294;45.5182;10.1382;4.5262;
81993604063294;45.6768;10.1626;4.3798;
81993614063294;45.7500;10.2114;4.6726;
81993624063294;45.7866;10.1504;4.9166;
81993634063294;45.8842;10.1504;5.0264;
81993644063294;45.9086;10.1504;5.3192;
81993654063294;45.8598;10.1748;5.6120;
81993664063294;45.6646;10.1626;5.9658;
81993674063294;45.6890;10.2358;6.1488;
81993684063294;45.6646;10.2602;6.5270;
81993694063294;45.5670;10.2846;6.6368;
81993704063294;45.5670;10.3944;6.7954;
81993714063294;45.5060;10.4554;6.8686;
81993724063294;45.5060;10.4676;6.8564;
81993734063294;45.4816;10.5042;6.9540;
81993744063294;45.5060;10.5896;7.0394;
81993754063294;45.4206;10.6140;7.0516;
81993764063294;45.2498;10.6018;7.1736;
81993774063294;45.0546;10.6140;7.4298;
81993784063294;44.9448;10.6262;7.4908;
81993794063294;44.8350;10.6018;7.6738;
81993804063294;44.6398;10.6384;7.8324;
81993814063294;44.5666;10.6384;7.8080;
81993824063294;44.3226;10.5774;7.8080;
81993834063294;44.0908;10.5164;8.0764;
81993844063294;44.1274;10.5774;8.1252;
81993854063294;44.1518;10.6506;8.0886;
81993864063294;44.1274;10.7116;8.1618;
81993874063294;44.1152;10.7604;8.1740;
81993884063294;44.3470;10.8458;8.0642;
81993894063294;44.4934;10.9068;8.0764;
81993904063294;44.8228;11.0044;7.8446;
81993914063294;45.1888;11.0898;7.6372;
81993924063294;45.3352;11.1020;7.4542;
81993934063294;45.5548;11.1386;7.2712;
81993944063294;45.6036;11.1386;7.1614;
81993954063294;45.6768;11.1874;7.1614;
81993964063294;45.6280;11.2240;7.2346;
81993974063294;45.5792;11.2240;7.2956;
81993984063294;45.4328;11.2484;7.5274;
81993994063294;45.3230;11.2850;7.6738;
81994004063294;45.2010;11.3460;7.8568;
81994014063294;44.9448;11.3460;8.1374;
81994024063294;44.8350;11.4070;8.3936;
81994034063294;44.7984;11.4558;8.5034;
81994044063294;44.7984;11.4924;8.6132;
81994054063294;44.6032;11.5534;8.7962;
81994064063294;44.4934;11.6266;9.0158;
81994074063294;44.3592;11.6876;9.2110;
81994084063294;44.2494;11.7364;9.2842;
81994094063294;44.3104;11.8584;9.2476;
81994104063294;44.2738;11.9072;9.2232;
81994114063294;44.1518;11.9804;9.2720;
81994124063294;43.8712;12.1024;9.5404;
81994134063294;43.7614;12.1756;9.7478;
81994144063294;43.6028;12.2610;9.8942;
81994154063294;43.6028;12.4074;9.9796;
81994164063294;43.5784;12.5416;9.9918;
81994174063294;43.4930;12.6392;10.0650;
81994184063294;43.7614;12.8222;9.7234;
81994194063294;43.8590;12.9686;9.6258;
81994204063294;44.0176;13.0906;9.2720;
81994214063294;44.2128;13.3102;8.9792;
81994224063294;44.3348;13.5054;8.6864;
81994234063294;44.3104;13.6274;8.3814;
81994244063294;44.3226;13.7616;8.1862;
81994254063294;44.3226;13.8836;8.0764;
81994264063294;43.8834;13.9568;8.4424;
81994274063294;43.5662;14.0666;8.4790;
81994284063294;43.4198;14.1642;8.6376;
81994294063294;43.3832;14.2008;8.5034;
81994304063294;43.2856;14.2618;8.4302;
81994314063294;43.2856;14.3716;8.3814;
81994324063294;43.2246;14.4204;8.3082;
81994334063294;43.2002;14.4814;8.1740;
81994344063294;43.2856;14.5668;8.0032;
81994354063294;43.3222;14.5424;8.0276;
81994364063294;43.2246;14.5180;7.9422;
81994374063294;43.0660;14.5424;8.0642;
81994384063294;43.0782;14.5058;8.1374;
81994394063294;42.9684;14.4082;8.1374;
81994404063294;42.9684;14.3838;8.1984;
81994414063294;42.9196;14.3350;8.2838;
81994424063294;42.8708;14.2496;8.3448;
81994434063294;42.8952;14.1886;8.2716;
81994444063294;43.0172;14.1154;8.2960;
81994454063294;43.0782;14.0422;8.2716;
81994464063294;43.1148;13.9690;8.1618;
81994474063294;43.2856;13.8958;8.2350;
81994484063294;43.4076;13.8348;8.2106;
81994494063294;43.4808;13.7128;8.0764;
81994504063294;43.5784;13.6030;8.0764;
81994514063294;43.5052;13.5298;8.4546;
81994524063294;43.6394;9.5648;7.5884;
81994534063294;43.4564;9.4794;7.8690;
81994544063294;43.4076;9.4062;8.1984;
81994554063294;43.3344;9.3940;8.3082;
81994564063294;43.1636;9.3574;8.5278;
81994574063294;43.0904;9.3574;8.8572;
81994584063294;42.8586;9.3208;9.2964;
81994594063294;42.8586;9.3452;9.2598;
81994604063294;42.9074;9.3330;9.3940;
81994614063294;43.0050;9.3452;9.4184;
81994624063294;42.9440;9.3574;9.4184;
81994634063294;42.8708;9.3208;9.5526;
81994644063294;42.8342;9.2964;9.6380;
81994654063294;42.7976;9.2964;9.6014;
81994664063294;42.9440;9.3330;9.4916;
81994674063294;43.1392;9.3086;9.3086;
81994684063294;43.0050;9.2720;9.3940;
81994694063294;43.0172;9.3086;9.5282;
81994704063294;42.9440;9.2842;9.6502;
81994714063294;42.9318;9.2964;9.6868;
81994724063294;42.9928;9.3086;9.6014;
81994734063294;43.0294;9.2842;9.7112;
81994744063294;43.0660;9.2964;9.6014;
81994754063294;43.0538;9.3086;9.5160;
81994764063294;43.4320;9.3940;9.1866;
81994774063294;43.5174;9.3940;8.9060;
81994784063294;43.7248;9.4916;8.6620;
81994794063294;43.8590;9.5038;8.5522;
81994804063294;43.9322;9.5282;8.5522;
81994814063294;44.0420;9.5892;8.3814;
81994824063294;44.2250;9.5648;8.1984;
81994834063294;44.2616;9.5892;8.2106;
81994844063294;44.1640;9.5404;8.2838;
81994854063294;44.2006;9.5160;8.1618;
81994864063294;44.4934;9.4428;7.7226;
81994874063294;44.5300;5.9170;7.2346;
81994884063294;44.5300;5.8560;7.1004;
81994894063294;44.5422;5.8438;7.0150;
81994904063294;44.4080;5.8438;7.1614;
81994914063294;44.4690;5.8072;7.1004;
81994924063294;44.5178;5.8194;7.0882;
81994934063294;44.5544;5.8560;7.1492;
81994944063294;44.3836;5.9292;7.5518;
81994954063294;44.3836;5.8926;7.6982;
81994964063294;44.4812;5.9414;7.7592;
81994974063294;44.4202;5.9414;7.9910;
81994984063294;44.3714;5.9658;8.1618;
81994994063294;44.2860;5.9902;8.3936;
81995004063294;44.3104;5.9902;8.4424;
81995014063294;44.3470;5.9658;8.4668;
81995024063294;44.3348;5.9170;8.5766;
81995034063294;44.3958;5.9170;8.6132;
81995044063294;44.4080;5.9048;8.6986;
81995054063294;44.4812;5.8682;8.6620;
81995064063294;44.6032;5.8194;8.5644;
81995074063294;44.6642;5.7462;8.5766;
81995084063294;44.6642;5.6730;8.6986;
81995094063294;44.5788;5.6120;8.9670;
81995104063294;44.5178;5.5632;9.0524;
81995114063294;44.4446;5.5144;9.1500;
81995124063294;44.2860;5.4778;9.3086;
81995134063294;44.1030;5.4534;9.5404;
81995144063294;43.9688;5.4412;9.7722;
81995154063294;43.9322;5.4290;9.8698;
81995164063294;43.8956;5.4412;9.9064;
81995174063294;43.9932;5.4534;9.8210;
81995184063294;44.0054;5.4534;9.8454;
81995194063294;44.0420;5.4534;9.8210;
81995204063294;44.2006;5.4290;9.7234;
81995214063294;44.3714;5.4046;9.5526;
81995224063294;44.5300;5.3802;9.3574;
81995234063294;44.5788;5.3802;9.2476;
81995244063294;44.6886;5.3680;9.1256;
81995254063294;44.7862;5.3802;8.9914;
81995264063294;44.7984;5.3924;8.9060;
81995274063294;44.8594;5.3802;8.8572;
81995284063294;44.8960;5.3802;8.8206;
81995294063294;44.8594;5.3558;8.8694;
81995304063294;44.9326;5.3558;8.8450;
81995314063294;44.9936;5.3558;8.8206;
81995324063294;45.0546;5.3924;8.8084;
81995334063294;45.0546;5.4046;8.8694;
81995344063294;45.1034;5.3924;8.9548;
81995354063294;45.0912;5.4290;8.9548;
81995364063294;44.9448;5.4412;9.0890;
81995374063294;45.0058;5.4534;9.0646;
81995384063294;44.9570;5.5022;9.1744;
81995394063294;44.8960;5.5022;9.2964;
81995404063294;44.4202;5.4656;9.8820;
81995414063294;44.2494;5.4656;10.0772;
81995424063294;44.1518;5.5144;10.0772;
81995434063294;44.0420;5.5266;10.2724;
81995444063294;44.0542;5.5998;10.3456;
81995454063294;44.0420;5.6242;10.3700;
81995464063294;43.9200;5.5998;10.4920;
81995474063294;43.8468;5.6364;10.5774;
81995484063294;44.1152;5.6974;10.1138;
81995494063294;44.0908;5.7340;10.1260;
81995504063294;43.9810;5.7096;10.3334;
81995514063294;43.8956;5.7096;10.3578;
81995524063294;43.7492;5.6852;10.5286;
81995534063294;43.5174;5.7218;10.7970;
81995544063294;43.3710;5.7584;10.9800;
81995554063294;43.1758;5.7950;11.1874;
81995564063294;43.0416;5.7950;11.4924;
81995574063294;43.0050;5.8560;11.5534;
81995584063294;42.9928;5.9048;11.5534;
81995594063294;43.0050;5.9780;11.6388;
81995604063294;43.0904;5.9902;11.5534;
81995614063294;43.1636;6.0634;11.4802;
81995624063294;43.1392;6.0878;11.5290;
81995634063294;43.2490;6.0634;11.4314;
81995644063294;43.3710;6.1122;11.2850;
81995654063294;43.4198;6.0878;11.2240;
81995664063294;43.3954;6.1244;11.2484;
81995674063294;43.3588;6.1122;11.3338;
81995684063294;43.2490;6.1488;11.4436;
81995694063294;43.1636;6.1366;11.5046;
81995704063294;43.2856;6.1854;11.2728;
81995714063294;43.3344;6.2708;11.2118;
81995724063294;43.3100;6.2708;11.2240;
81995734063294;43.2002;6.3074;11.3338;
81995744063294;43.2612;6.3196;11.3216;
81995754063294;43.3100;6.3562;11.2728;
81995764063294;43.3466;6.4172;11.2484;
81995774063294;43.4564;6.4538;11.1264;
81995784063294;43.5296;6.4782;11.0288;
81995794063294;43.6150;6.5148;10.9800;
81995804063294;43.5662;6.5514;11.0044;
81995814063294;43.7004;6.5758;10.8336;
81995824063294;43.7614;6.6246;10.6994;
81995834063294;43.7492;6.6734;10.6140;
81995844063294;43.7370;6.6978;10.5652;
81995854063294;43.7004;6.6734;10.5652;
81995864063294;43.5662;6.6856;10.6384;
81995874063294;43.4076;6.6856;10.7238;
81995884063294;43.4076;6.6978;10.6994;
81995894063294;43.2612;6.7100;10.8092;
81995904063294;43.1514;6.7100;10.8580;
81995914063294;43.1758;6.7100;10.8214;
81995924063294;43.2124;6.7344;10.8458;
81995934063294;43.2002;6.8076;10.8824;
81995944063294;43.2246;6.8442;10.9434;
81995954063294;43.2612;6.8320;10.9190;
81995964063294;43.3466;6.8686;10.7970;
81995974063294;43.4198;6.8808;10.7848;
81995984063294;43.4198;6.8686;10.6994;
81995994063294;43.5174;6.8442;10.6628;
81996004063294;43.5052;6.8320;10.6140;
81996014063294;43.5784;6.7954;10.5164;
81996024063294;43.6882;6.7954;10.3822;
81996034063294;43.7248;6.8198;10.2602;
81996044063294;43.6516;6.8076;10.3334;
81996054063294;43.6272;6.8198;10.3700;
81996064063294;43.6028;6.8930;10.4554;
81996074063294;43.6028;6.9296;10.4554;
81996084063294;43.6394;6.9540;10.3578;
81996094063294;43.5784;7.0272;10.4676;
81996104063294;43.5662;7.0516;10.4066;
81996114063294;43.7248;7.1126;10.3212;
81996124063294;43.8346;7.1736;10.2480;
81996134063294;43.8346;7.1858;10.1870;
81996144063294;43.8956;7.1980;10.1260;
81996154063294;43.7980;7.1858;10.1382;
81996164063294;43.8712;7.2224;10.0772;
81996174063294;43.9810;7.2346;9.8942;
81996184063294;44.1152;7.2834;9.7234;
81996194063294;43.9566;7.3322;9.7844;
81996204063294;43.7980;7.3688;9.8942;
81996214063294;43.7126;7.4542;9.9918;
81996224063294;43.5906;7.4298;10.1626;
81996234063294;43.5296;7.5030;10.1870;
81996244063294;43.3832;7.5396;10.3944;
81996254063294;43.2856;7.5884;10.5164;
81996264063294;43.1026;7.5640;10.7238;
81996274063294;43.0294;7.5274;10.8458;
81996284063294;43.1270;7.4786;10.7482;
81996294063294;43.2612;7.4664;10.5774;
81996304063294;43.4930;7.5274;10.2602;
81996314063294;43.6760;7.5640;10.0406;
81996324063294;43.9078;7.5396;9.7112;
81996334063294;44.0664;7.5274;9.4428;
81996344063294;44.2372;7.5518;9.2232;
81996354063294;44.4568;7.5640;8.9304;
81996364063294;44.5544;7.6372;8.8328;
81996374063294;44.5788;7.6494;8.7962;
81996384063294;44.5300;7.6372;8.7840;
81996394063294;44.5300;7.6494;8.8450;
81996404063294;44.5666;7.6860;8.7718;
81996414063294;44.5788;7.7226;8.7962;
81996424063294;44.5910;7.7714;8.8816;
81996434063294;44.6398;7.7470;8.8572;
81996444063294;44.5300;7.7226;9.0158;
81996454063294;44.4812;7.7226;9.0646;
81996464063294;44.4934;7.7104;9.2110;
81996474063294;44.3348;7.7104;9.3696;
81996484063294;44.1030;7.6494;9.7112;
81996494063294;43.9200;7.6128;9.9796;
81996504063294;43.7126;7.5396;10.1382;
81996514063294;43.5784;7.5518;10.3700;
81996524063294;43.5052;7.5518;10.3822;
81996534063294;43.3588;7.5030;10.5408;
81996544063294;43.2734;7.5274;10.6384;
81996554063294;43.1880;7.4664;10.7116;
81996564063294;43.1392;7.4664;10.7726;
81996574063294;43.0782;7.4542;10.8824;
81996584063294;43.0660;7.4542;10.9800;
81996594063294;42.9684;7.4786;11.1020;
81996604063294;42.7610;7.4542;11.3460;
81996614063294;42.7366;7.4054;11.4192;
81996624063294;42.6390;7.3810;11.5168;
81996634063294;42.6878;7.3688;11.5168;
81996644063294;42.7854;7.3810;11.5046;
81996654063294;42.7610;7.3444;11.4924;
81996664063294;42.7610;7.3200;11.5046;
81996674063294;42.6634;7.2956;11.6632;
81996684063294;42.8342;7.2712;11.5046;
81996694063294;43.0416;7.3200;11.3582;
81996704063294;43.1514;7.3078;11.3216;
81996714063294;43.2002;7.2834;11.2972;
81996724063294;43.1148;7.2712;11.3948;
81996734063294;43.1148;7.1858;11.4558;
81996744063294;43.1392;7.1858;11.4192;
81996754063294;43.2734;7.1492;11.3216;
81996764063294;43.2246;7.1004;11.3826;
81996774063294;43.1514;7.0150;11.5168;
81996784063294;43.1392;6.9540;11.5412;
81996794063294;43.1148;6.8930;11.6998;
81996804063294;43.2124;6.8320;11.6388;
81996814063294;43.3222;6.8686;11.5900;
81996824063294;43.2612;6.7954;11.7608;
81996834063294;43.2612;6.7466;11.7852;
81996844063294;43.2978;6.7222;11.8462;
81996854063294;43.3954;6.6856;11.7852;
81996864063294;43.5296;6.6612;11.6998;
81996874063294;43.7126;6.6368;11.5656;
81996884063294;43.7858;6.5514;11.4924;
81996894063294;43.9200;6.4538;11.3338;
81996904063294;44.1762;6.3928;11.1508;
81996914063294;44.3348;6.3440;10.9190;
81996924063294;44.6764;6.2708;10.7116;
81996934063294;44.7130;6.1854;10.6140;
81996944063294;44.7496;6.1488;10.6384;
81996954063294;44.7618;6.1122;10.6018;
81996964063294;44.8594;6.0878;10.5652;
81996974063294;44.9692;6.0756;10.6140;
81996984063294;45.0180;6.0878;10.5286;
81996994063294;45.0302;6.0878;10.6628;
81997004063294;44.8960;6.1122;10.7360;
81997014063294;44.9204;6.1122;10.7848;
81997024063294;44.8228;6.1000;10.8824;
81997034063294;44.8472;6.1000;10.8946;
81997044063294;44.8228;6.1366;10.9434;
81997054063294;44.7740;6.2098;10.9312;
81997064063294;44.7618;6.2342;10.9556;
81997074063294;44.7374;6.2220;10.9312;
81997084063294;44.7496;6.2464;10.9556;
81997094063294;44.7130;6.3074;11.0044;
81997104063294;44.6886;6.3684;11.0410;
81997114063294;44.5544;6.4172;11.2240;
81997124063294;44.4080;6.4660;11.3460;
81997134063294;44.3104;6.4904;11.4802;
81997144063294;44.1274;6.4782;11.6876;
81997154063294;43.9566;6.5026;11.8218;
81997164063294;43.8346;6.5514;11.9560;
81997174063294;43.7126;6.5880;12.0902;
81997184063294;43.6516;6.6368;12.0902;
81997194063294;43.6760;6.6856;12.0170;
81997204063294;43.6394;6.7466;12.0658;
81997214063294;43.5784;6.7954;12.1634;
81997224063294;43.6028;6.8930;12.1634;
81997234063294;43.6638;7.0150;12.1146;
81997244063294;43.6638;7.0760;12.0658;
81997254063294;43.6150;7.1492;12.0902;
81997264063294;43.6638;7.1858;12.0048;
81997274063294;43.5174;7.2834;12.0902;
81997284063294;43.3954;7.3322;12.2000;
81997294063294;43.3222;7.4542;12.2244;
81997304063294;43.1758;7.4908;12.3220;
81997314063294;43.0904;7.5518;12.3708;
81997324063294;43.0294;7.6372;12.3830;
81997334063294;43.0782;7.6982;12.2610;
81997344063294;43.1026;7.7836;12.2366;
81997354063294;43.2002;7.8080;12.1268;
81997364063294;43.2734;7.8568;11.9926;
81997374063294;43.2612;7.8568;11.9926;
81997384063294;43.1270;7.9178;12.0902;
81997394063294;43.0782;7.9422;12.1512;
81997404063294;42.9806;7.9910;12.2122;
81997414063294;42.8464;8.0642;12.3220;
81997424063294;42.6512;8.1618;12.4684;
81997434063294;42.4194;8.2350;12.6636;
81997444063294;42.2486;8.3082;12.8954;
81997454063294;42.0168;8.3692;13.0174;
81997464063294;42.0412;8.4912;12.9686;
81997474063294;42.0656;8.6132;12.8100;
81997484063294;42.0534;8.6498;12.7124;
81997494063294;41.9680;8.7474;12.8222;
81997504063294;41.8704;8.7840;12.9442;
81997514063294;41.9436;8.8328;12.7978;
81997524063294;42.0900;8.9060;12.4928;
81997534063294;42.2974;8.9548;12.1756;
81997544063294;42.4560;8.9548;12.0170;
81997554063294;42.3462;8.9426;12.1512;
81997564063294;42.2242;8.9548;12.3464;
81997574063294;42.3584;8.9060;12.2732;
81997584063294;42.3584;8.9060;12.2000;
81997594063294;42.3218;8.9182;12.2610;
81997604063294;42.2364;8.9060;12.4196;
81997614063294;42.1632;8.8816;12.5538;
81997624063294;42.1632;8.8572;12.5416;
81997634063294;42.2730;8.8816;12.3830;
81997644063294;42.5048;8.8572;12.0658;
81997654063294;42.4560;8.8450;11.9560;
81997664063294;42.4926;8.7718;11.8462;
81997674063294;42.5536;8.7474;11.7974;
81997684063294;42.5902;8.7230;11.6144;
81997694063294;42.6512;8.7230;11.5656;
81997704063294;42.5292;8.7108;11.6876;
81997714063294;42.5292;8.6742;11.6876;
81997724063294;42.5658;8.6498;11.6632;
81997734063294;42.7244;8.6498;11.4192;
81997744063294;43.0172;8.6742;11.1386;
81997754063294;43.2368;8.6254;10.8092;
81997764063294;43.3710;8.5766;10.7116;
81997774063294;43.5052;8.5278;10.4920;
81997784063294;43.6150;8.5034;10.2480;
81997794063294;43.7736;8.4790;10.0894;
81997804063294;43.7614;8.4424;10.1260;
81997814063294;43.8590;8.3936;10.0772;
81997824063294;43.8590;8.3448;10.0528;
81997834063294;43.8468;8.2960;10.1382;
81997844063294;43.7980;8.2350;10.1748;
81997854063294;43.6638;8.1984;10.3334;
81997864063294;43.7492;8.1496;10.2358;
81997874063294;43.6638;8.0642;10.3700;
81997884063294;43.7248;8.0032;10.3456;
81997894063294;43.6150;7.9300;10.3700;
81997904063294;43.6272;7.8446;10.4554;
81997914063294;43.6028;7.7958;10.5042;
81997924063294;43.7370;7.7958;10.4676;
81997934063294;43.9566;7.7958;10.2236;
81997944063294;44.0298;7.7714;10.1748;
81997954063294;44.1152;7.8324;10.0406;
81997964063294;44.2006;7.8324;9.9308;
81997974063294;44.3104;7.8446;9.9308;
81997984063294;44.2982;7.8446;9.8454;
81997994063294;44.3592;7.8690;9.7844;
81998004063294;44.3958;7.8568;9.6746;
81998014063294;44.3958;7.8446;9.7478;
81998024063294;44.4202;7.8690;9.8332;
81998034063294;44.3104;7.8202;10.0528;
81998044063294;44.2006;7.8080;10.2358;
81998054063294;43.9932;7.7714;10.4554;
81998064063294;43.9078;7.7348;10.6384;
81998074063294;43.8712;7.6860;10.7238;
81998084063294;43.9078;7.6494;10.7116;
81998094063294;43.8102;7.5640;10.8702;
81998104063294;43.8224;7.4786;10.8824;
81998114063294;43.9688;7.3932;10.6872;
81998124063294;44.1640;7.3688;10.4310;
81998134063294;44.4568;7.3200;10.0772;
81998144063294;44.6886;7.2834;9.8698;
81998154063294;44.8106;7.2956;9.7112;
81998164063294;44.8472;7.2712;9.6502;
81998174063294;44.9814;7.3078;9.4916;
81998184063294;44.8838;7.2590;9.5404;
81998194063294;44.8228;7.2346;9.6136;
81998204063294;44.6520;7.1980;9.7966;
81998214063294;44.4568;7.2102;10.0772;
81998224063294;44.3470;7.1492;10.2114;
81998234063294;44.2372;7.0638;10.2602;
81998244063294;44.1884;7.0394;10.4066;
81998254063294;44.1152;7.0028;10.4188;
81998264063294;44.2982;7.0272;10.1992;
81998274063294;44.4690;7.0272;10.0040;
81998284063294;44.7374;7.0394;9.6868;
81998294063294;45.0546;7.0394;9.3696;
81998304063294;45.2376;7.0760;9.1378;
81998314063294;45.4206;7.1248;8.9182;
81998324063294;45.6402;7.1370;8.6864;
81998334063294;45.8476;7.1004;8.5522;
81998344063294;45.9330;7.0516;8.4546;
81998354063294;45.9574;7.0150;8.4180;
81998364063294;45.8842;6.9906;8.5888;
81998374063294;45.8232;6.9296;8.7840;
81998384063294;45.7012;6.9052;8.9182;
81998394063294;45.6280;6.8442;9.2354;
81998404063294;45.4450;6.7954;9.4184;
81998414063294;45.3352;6.7954;9.5526;
81998424063294;45.1766;6.7832;9.8942;
81998434063294;45.1034;6.7588;10.0284;
81998444063294;44.9570;6.6856;10.2480;
81998454063294;44.9448;6.6978;10.2968;
81998464063294;44.9692;6.6612;10.2846;
81998474063294;44.8716;6.6368;10.3456;
81998484063294;44.8838;6.6368;10.3700;
81998494063294;44.9570;6.6246;10.3578;
81998504063294;44.9570;6.6124;10.3212;
81998514063294;44.9570;6.6368;10.3090;
81998524063294;45.0668;6.6978;10.1748;
81998534063294;44.7618;6.6856;10.3334;
81998544063294;44.4690;7.0028;10.6994;
81998554063294;44.3836;7.0760;10.7360;
81998564063294;44.2250;7.1248;10.8946;
81998574063294;43.9810;7.1980;11.2362;
81998584063294;43.8590;7.3078;11.3460;
81998594063294;43.5662;7.3932;11.6510;
81998604063294;43.3588;7.5030;11.9926;
81998614063294;43.3954;7.5762;11.9926;
81998624063294;43.4686;7.6616;11.8950;
81998634063294;43.4930;7.7714;11.8584;
81998644063294;43.5052;7.8202;11.8096;
81998654063294;43.4198;7.8202;11.6998;
81998664063294;43.2978;7.8690;11.7974;
81998674063294;43.4198;7.9056;11.6632;
81998684063294;43.5296;7.9178;11.3948;
81998694063294;43.5662;7.9544;11.3094;
81998704063294;43.5540;8.0032;11.2118;
81998714063294;43.5052;8.0154;11.2728;
81998724063294;43.5174;8.0398;11.2484;
81998734063294;43.5906;8.0886;11.2118;
81998744063294;43.5906;8.0886;11.1874;
81998754063294;43.4930;8.0886;11.2484;
81998764063294;43.3710;8.1130;11.3704;
81998774063294;43.2978;8.1008;11.4924;
81998784063294;43.3466;8.1130;11.5412;
81998794063294;43.3710;8.0764;11.5290;
81998804063294;43.4442;8.0764;11.5778;
81998814063294;43.4198;8.1130;11.6876;
81998824063294;43.6150;8.1252;11.5290;
81998834063294;43.7248;8.1374;11.5656;
81998844063294;43.7004;8.0642;11.6388;
81998854063294;43.7736;8.0886;11.5534;
81998864063294;43.7858;8.0886;11.5778;
81998874063294;43.8346;8.0642;11.4802;
81998884063294;43.7370;8.0764;11.3948;
81998894063294;43.8468;8.0520;11.2240;
81998904063294;43.8102;8.0398;11.1996;
81998914063294;43.8590;8.0276;11.0044;
81998924063294;44.0298;8.0764;10.8580;
81998934063294;44.0786;8.0764;10.8580;
81998944063294;44.1518;8.0520;10.7848;
81998954063294;44.2128;8.0886;10.7604;
81998964063294;44.4202;8.0886;10.6750;
81998974063294;44.5788;8.0764;10.5774;
81998984063294;44.5544;8.0764;10.6628;
81998994063294;44.5300;8.0886;10.8458;
81999004063294;44.5056;8.0276;10.8580;
81999014063294;44.6276;8.0032;10.6750;
81999024063294;44.7496;8.0154;10.5042;
81999034063294;44.8350;8.0154;10.3578;
81999044063294;44.8350;8.0154;10.3456;
81999054063294;44.6642;8.0154;10.4798;
81999064063294;44.5056;8.0032;10.6750;
81999074063294;44.4568;8.0032;10.7238;
81999084063294;44.3836;8.0520;10.8092;
81999094063294;44.3226;8.1374;10.9434;
81999104063294;44.2128;8.1496;10.9800;
81999114063294;44.1640;8.1496;11.0776;
81999124063294;44.0908;8.1740;11.1996;
81999134063294;44.0176;8.1984;11.2972;
81999144063294;44.2128;8.2106;11.1020;
81999154063294;44.1762;8.2350;11.1386;
81999164063294;44.0054;8.2350;11.3704;
81999174063294;43.8102;8.2228;11.6754;
81999184063294;43.7126;8.1984;11.8462;
81999194063294;43.6516;8.2472;11.9926;
81999204063294;43.5662;8.2838;12.0658;
81999214063294;43.5174;8.3448;12.1024;
81999224063294;43.4198;8.4180;12.2854;
81999234063294;43.3954;8.3936;12.2854;
81999244063294;43.5174;8.4546;12.0902;
81999254063294;43.6272;8.5278;11.8584;
81999264063294;43.6760;8.5888;11.8584;
81999274063294;43.6028;8.6498;11.9560;
81999284063294;43.5052;8.6986;12.0658;
81999294063294;43.5540;8.7596;12.0414;
81999304063294;43.6394;8.8084;11.8462;
81999314063294;43.7980;8.8938;11.6876;
81999324063294;43.9932;8.9426;11.4802;
81999334063294;44.0786;8.9792;11.3704;
81999344063294;44.0786;9.0524;11.3216;
81999354063294;44.1152;9.0768;11.2240;
81999364063294;44.2738;9.1256;10.8946;
81999374063294;44.3592;9.1500;10.7726;
81999384063294;44.3348;9.2110;10.7116;
81999394063294;44.4446;9.3330;10.5164;
81999404063294;44.4080;9.3940;10.5652;
81999414063294;44.1762;9.4428;10.7360;
81999424063294;44.0908;9.4916;10.8580;
81999434063294;44.0542;9.5404;10.7970;
81999444063294;43.9810;9.5526;10.9312;
81999454063294;43.8712;9.5526;11.0288;
81999464063294;43.8468;9.5892;11.0776;
81999474063294;43.6760;9.5648;11.2240;
81999484063294;43.5174;9.6258;11.2118;
81999494063294;43.6272;9.6502;11.0654;
81999504063294;43.7126;9.7112;10.7970;
81999514063294;43.7614;9.7478;10.7116;
81999524063294;43.7370;9.7844;10.8092;
81999534063294;43.6638;9.7844;10.8092;
81999544063294;43.7004;9.7844;10.7116;
81999554063294;43.7736;9.7722;10.5774;
81999564063294;43.8712;9.7112;10.5164;
81999574063294;43.8956;9.7234;10.4310;
81999584063294;43.9322;9.6746;10.5408;
81999594063294;43.9688;9.6502;10.5164;
81999604063294;44.0298;9.5770;10.4188;
81999614063294;44.0664;9.6014;10.4798;
81999624063294;44.0054;9.5160;10.6994;
81999634063294;43.8834;9.4916;10.8214;
81999644063294;43.8834;9.4672;10.9068;
81999654063294;43.8834;9.3940;11.0166;
81999664063294;43.8468;9.3452;10.9678;
81999674063294;43.8468;9.2964;11.0288;
81999684063294;43.8712;9.2598;11.0898;
81999694063294;44.0054;9.2598;11.0166;
81999704063294;44.0542;9.3330;10.9312;
81999714063294;44.1030;9.3696;10.9922;
81999724063294;43.8468;9.3940;11.2484;
81999734063294;43.7004;9.4672;11.3826;
81999744063294;43.6150;9.5526;11.4924;
81999754063294;43.5174;9.6502;11.5534;
81999764063294;43.4808;9.7722;11.5290;
81999774063294;43.4442;9.8698;11.3826;
81999784063294;43.5174;9.9186;11.1142;
81999794063294;43.6638;10.0040;10.8092;
81999804063294;44.0786;10.1138;10.2114;
81999814063294;44.2860;10.1260;9.9308;
81999824063294;44.5056;10.1870;9.5770;
81999834063294;44.6642;10.1992;9.2598;
81999844063294;44.8472;10.2358;8.9060;
81999854063294;44.9570;10.2480;8.6132;
81999864063294;44.8472;10.2358;8.6498;
81999874063294;44.7862;10.1748;8.7596;
81999884063294;44.6276;10.1260;8.9304;
81999894063294;44.6154;10.1260;8.9548;
81999904063294;44.4690;10.0772;9.1256;
81999914063294;44.3226;9.9918;9.3086;
81999924063294;44.2616;9.9186;9.4794;
81999934063294;44.1152;9.8576;9.7600;
81999944063294;44.1152;9.8210;9.9308;
81999954063294;44.0054;9.7722;10.0650;
81999964063294;43.9810;9.7234;10.1504;
81999974063294;43.9810;9.6868;10.1992;
81999984063294;44.0664;9.5770;10.1626;
81999994063294;44.2860;9.5770;10.0650;
82000004063294;44.3836;9.5648;9.9918;
82000014063294;44.5544;9.5648;9.8820;
82000024063294;44.7130;9.5526;9.7112;
82000034063294;44.8716;9.5404;9.5282;
82000044063294;45.0058;9.5770;9.4062;
82000054063294;45.0546;9.5892;9.2720;
82000064063294;45.0668;9.6868;9.2110;
82000074063294;44.8960;9.7600;9.3086;
82000084063294;44.6642;9.7844;9.4916;
82000094063294;44.5910;9.8088;9.5404;
82000104063294;44.5544;9.8454;9.5282;
82000114063294;44.4690;9.9430;9.5892;
82000124063294;44.3470;9.9918;9.7234;
82000134063294;44.1640;10.0528;9.8942;
82000144063294;44.0298;10.0772;10.0162;
82000154063294;44.0176;10.1016;10.0162;
82000164063294;44.0542;10.1626;9.9064;
82000174063294;43.9688;10.2480;9.9796;
82000184063294;43.8346;10.3578;10.0894;
82000194063294;43.8712;10.4310;9.9552;
82000204063294;43.6882;10.4920;10.1260;
82000214063294;43.7614;10.5530;10.0650;
82000224063294;43.7858;10.6506;9.9430;
82000234063294;43.7248;10.7360;9.9064;
82000244063294;43.5052;10.7970;10.0650;
82000254063294;43.4564;10.8580;10.0162;
82000264063294;43.4808;10.8946;9.8576;
82000274063294;43.3100;10.9312;10.0284;
82000284063294;43.3710;10.9556;9.8088;
82000294063294;43.3344;11.0166;9.7722;
82000304063294;43.2856;11.0044;9.8210;
82000314063294;43.2612;11.0532;9.8332;
82000324063294;43.3222;11.0898;9.7356;
82000334063294;43.2612;11.0898;9.7356;
82000344063294;43.1514;11.0898;9.8576;
82000354063294;43.2002;11.1020;9.7844;
82000364063294;43.3100;11.1630;9.6136;
82000374063294;43.3100;11.1508;9.5770;
82000384063294;43.3466;11.1996;9.5526;
82000394063294;43.3466;11.2240;9.4672;
82000404063294;43.3954;11.2362;9.4428;
82000414063294;43.4686;11.2606;9.4062;
82000424063294;43.4686;11.3216;9.4184;
82000434063294;43.4808;11.3582;9.3818;
82000444063294;43.3100;11.3460;9.6258;
82000454063294;43.2124;11.3582;9.7600;
82000464063294;43.0416;11.4192;9.8942;
82000474063294;42.8952;11.4314;10.1504;
82000484063294;42.7854;11.4802;10.2358;
82000494063294;42.6390;11.4680;10.3456;
82000504063294;42.5170;11.4680;10.5042;
82000514063294;42.4316;11.5046;10.6384;
82000524063294;42.4438;11.5534;10.6506;
82000534063294;42.4316;11.5900;10.6384;
82000544063294;42.5048;11.5656;10.5774;
82000554063294;42.5658;11.5656;10.5042;
82000564063294;42.6146;11.5656;10.5774;
82000574063294;42.7610;11.6022;10.5042;
82000584063294;42.9928;11.6022;10.2114;
82000594063294;43.1758;11.6266;10.0284;
82000604063294;43.3100;11.6510;9.9186;
82000614063294;43.4320;11.6632;9.8698;
82000624063294;43.4686;11.6754;9.8942;
82000634063294;43.5418;11.6632;9.7722;
82000644063294;43.2612;11.6632;10.1748;
82000654063294;43.1880;11.6510;10.2358;
82000664063294;43.0904;11.6632;10.3944;
82000674063294;42.9806;11.6754;10.5408;
82000684063294;42.9562;11.6144;10.5652;
82000694063294;42.9196;11.5900;10.6506;
82000704063294;42.9562;11.5778;10.5896;
82000714063294;43.1148;11.6388;10.4432;
82000724063294;43.5418;11.6998;9.9064;
82000734063294;43.5052;11.7242;9.9186;
82000744063294;43.4564;11.7486;10.0894;
82000754063294;43.3832;11.7608;10.1748;
82000764063294;43.2734;11.7974;10.2968;
82000774063294;43.2490;11.8706;10.3090;
82000784063294;43.2002;11.9194;10.3822;
82000794063294;43.1148;11.9316;10.6140;
82000804063294;43.0782;11.9804;10.6140;
82000814063294;43.2124;11.9804;10.5530;
82000824063294;43.4442;11.9804;10.3456;
82000834063294;43.5418;11.9682;10.2236;
82000844063294;43.7492;11.9682;10.0406;
82000854063294;43.8590;11.9682;9.9674;
82000864063294;43.8712;11.9194;9.9064;
82000874063294;44.0664;11.9194;9.6746;
82000884063294;44.1396;11.8584;9.5404;
82000894063294;44.2128;11.8340;9.4794;
82000904063294;44.2616;11.8096;9.3696;
82000914063294;44.3104;11.7974;9.2964;
82000924063294;44.3348;11.8218;9.2842;
82000934063294;44.3226;11.7608;9.2476;
82000944063294;44.4446;11.7608;9.2476;
82000954063294;44.2372;11.7242;9.5404;
82000964063294;44.1640;11.7120;9.8088;
82000974063294;44.1640;11.6876;9.9918;
82000984063294;43.9932;11.6632;10.3212;
82000994063294;44.0176;11.6510;10.4066;
82001004063294;44.0054;11.6144;10.5652;
82001014063294;44.0054;11.5900;10.6384;
82001024063294;44.1152;11.5778;10.5530;
82001034063294;44.2860;11.5534;10.4188;
82001044063294;44.4324;11.5168;10.2358;
82001054063294;44.5300;11.4924;9.9918;
82001064063294;44.7252;11.4924;9.6380;
82001074063294;44.8228;11.4802;9.5770;
82001084063294;44.8960;11.4436;9.4428;
82001094063294;44.9326;11.4680;9.4428;
82001104063294;44.8106;11.4314;9.6014;
82001114063294;44.6764;11.3582;9.7844;
82001124063294;44.4690;11.3216;10.0406;
82001134063294;44.3226;11.2972;10.2724;
82001144063294;44.1518;11.2118;10.5530;
82001154063294;43.8712;11.1386;10.9678;
82001164063294;43.5784;11.0898;11.3704;
82001174063294;43.3954;10.9678;11.6144;
82001184063294;43.2368;10.8702;11.8706;
82001194063294;43.1270;10.8336;11.9804;
82001204063294;43.1880;10.7726;11.9682;
82001214063294;43.1148;10.7116;12.0780;
82001224063294;43.0660;10.6384;12.2244;
82001234063294;43.0904;10.5530;12.2000;
82001244063294;43.2002;10.4554;12.0292;
82001254063294;43.2856;10.4066;11.9194;
82001264063294;43.2978;10.3334;11.8340;
82001274063294;43.4564;10.1748;11.7242;
82001284063294;43.3954;10.0406;11.8706;
82001294063294;43.3832;9.8942;11.9438;
82001304063294;43.3832;9.7600;11.9804;
82001314063294;43.4320;9.6380;11.9804;
82001324063294;43.4686;9.5038;12.0780;
82001334063294;43.4320;9.3452;12.2000;
82001344063294;43.7248;10.2846;12.2122;
82001354063294;43.6760;10.1870;12.3586;
82001364063294;43.7858;10.0772;12.2610;
82001374063294;43.8468;9.9064;12.3220;
82001384063294;43.8590;9.7722;12.3098;
82001394063294;43.8712;9.6258;12.3220;
82001404063294;43.7614;9.4916;12.4440;
82001414063294;43.8468;9.3940;12.4684;
82001424063294;43.8956;9.2720;12.4074;
82001434063294;43.9932;9.1622;12.2488;
82001444063294;44.1518;9.0158;12.1634;
82001454063294;44.2616;8.9304;11.9682;
82001464063294;44.3958;8.7718;11.9072;
82001474063294;44.5056;8.6254;11.8950;
82001484063294;44.6886;8.4912;11.7364;
82001494063294;44.8106;8.3326;11.6388;
82001504063294;44.8594;8.1496;11.5168;
82001514063294;44.8350;7.9788;11.6510;
82001524063294;44.6032;7.8080;11.8706;
82001534063294;44.4934;7.6250;11.9804;
82001544063294;44.4934;7.4786;12.0780;
82001554063294;44.3958;7.3566;12.0902;
82001564063294;44.2372;7.2224;12.2732;
82001574063294;44.0176;7.0638;12.5172;
82001584063294;43.8102;6.9662;12.7490;
82001594063294;43.7248;6.8564;12.8344;
82001604063294;43.8224;6.7832;12.8710;
82001614063294;43.7492;6.6856;12.9808;
82001624063294;44.4202;9.8942;13.1028;
82001634063294;44.5300;9.8332;12.9564;
82001644063294;44.7618;9.7722;12.7368;
82001654063294;45.0912;9.6868;12.2366;
82001664063294;45.4328;9.6502;11.8340;
82001674063294;45.7134;9.6258;11.5168;
82001684063294;45.8354;9.5770;11.1874;
82001694063294;46.0184;9.5892;10.9800;
82001704063294;46.0428;9.5892;10.9190;
82001714063294;45.9818;9.5282;10.9678;
82001724063294;45.9696;9.5160;10.9434;
82001734063294;45.9452;9.5648;11.0044;
82001744063294;45.8476;9.5404;11.1020;
82001754063294;45.6158;9.5160;11.3338;
82001764063294;45.4938;9.5404;11.4314;
82001774063294;45.3962;9.5404;11.4924;
82001784063294;45.2498;9.5038;11.6144;
82001794063294;45.0180;9.5038;11.8096;
82001804063294;44.7984;9.4794;12.0292;
82001814063294;44.4324;9.4672;12.3464;
82001824063294;44.1762;9.5038;12.6026;
82001834063294;44.0664;9.5526;12.6026;
82001844063294;43.9810;9.5770;12.7002;
82001854063294;43.9078;9.5892;12.6392;
82001864063294;43.8346;9.6380;12.5538;
82001874063294;43.9322;9.7112;12.3342;
82001884063294;43.9566;9.7722;12.1268;
82001894063294;44.0298;9.8210;11.9560;
82001904063294;43.9932;9.8332;11.8706;
82001914063294;43.9444;9.8332;11.8218;
82001924063294;43.8956;9.9064;11.7730;
82001934063294;43.7980;9.9796;11.8584;
82001944063294;43.6882;10.0284;11.8706;
82001954063294;43.6760;10.1382;11.8462;
82001964063294;43.6760;10.2114;11.8218;
82001974063294;43.6760;10.3334;11.7730;
82001984063294;43.6394;10.3944;11.7242;
82001994063294;43.7126;10.4920;11.5778;
82002004063294;43.8346;10.5408;11.2850;
82002014063294;44.0420;10.6384;10.9190;
82002024063294;44.2372;10.6994;10.6384;
82002034063294;44.3836;10.7238;10.3700;
82002044063294;44.4690;10.7970;10.0772;
82002054063294;44.5178;10.8336;9.8698;
82002064063294;44.6886;10.9678;9.5770;
82002074063294;44.8350;11.0166;9.3330;
82002084063294;44.8228;11.0410;9.3086;
82002094063294;44.7862;10.9922;9.3208;
82002104063294;44.7984;10.9922;9.4062;
82002114063294;44.6520;10.9922;9.6014;
82002124063294;44.5666;10.9434;9.7112;
82002134063294;44.6276;10.9068;9.6624;
82002144063294;44.6764;10.8702;9.6868;
82002154063294;44.6032;10.8458;9.8698;
82002164063294;44.5178;10.8702;9.9796;
82002174063294;44.6032;10.9190;9.9308;
82002184063294;44.6398;10.9556;9.8942;
82002194063294;44.7618;10.9800;9.7234;
82002204063294;44.8228;11.0166;9.6746;
82002214063294;44.8350;11.0532;9.7600;
82002224063294;44.9082;11.0654;9.6136;
82002234063294;46.1892;22.3748;11.3094;
82002244063294;46.3844;22.3626;11.1996;
82002254063294;46.2868;22.3260;11.2606;
82002264063294;46.3356;22.3260;11.2606;
82002274063294;46.3844;22.3138;11.3338;
82002284063294;46.3478;22.3016;11.4802;
82002294063294;46.2624;22.2772;11.6876;
82002304063294;46.0794;22.2528;11.9316;
82002314063294;45.9574;22.2894;12.1024;
82002324063294;45.7988;22.2406;12.3098;
82002334063294;45.8110;22.2772;12.4074;
82002344063294;45.7500;22.2772;12.4318;
82002354063294;45.6768;22.2772;12.5050;
82002364063294;45.7256;22.2894;12.3952;
82002374063294;46.0062;22.3260;12.0170;
82002384063294;46.0428;22.3504;11.9682;
82002394063294;46.1038;22.3748;11.9560;
82002404063294;46.1282;22.4358;11.8584;
82002414063294;46.1160;22.4602;11.8462;
82002424063294;46.1160;22.5090;11.8584;
82002434063294;46.1648;22.5822;11.7120;
82002444063294;46.2136;22.6798;11.7852;
82002454063294;45.9818;22.7530;12.0536;
82002464063294;45.9330;22.8506;12.1024;
82002474063294;45.8964;22.9360;12.1634;
82002484063294;45.8476;23.0458;12.2244;
82002494063294;45.8476;23.1678;12.2122;
82002504063294;45.9330;23.2532;12.0902;
82002514063294;45.9330;23.3264;12.1146;
82002524063294;45.8720;23.3874;12.1268;
82002534063294;45.8598;23.4850;12.0414;
82002544063294;46.0550;23.5826;11.8096;
82002554063294;46.0794;23.6558;11.7364;
82002564063294;46.1648;23.7534;11.5656;
82002574063294;46.2258;23.7778;11.5778;
82002584063294;46.0794;23.8510;11.7242;
82002594063294;45.9696;23.9242;11.8828;
82002604063294;45.9086;23.9974;11.9072;
82002614063294;45.8354;24.0218;12.0658;
82002624063294;45.7500;24.0096;12.2854;
82002634063294;45.6768;24.0340;12.2610;
82002644063294;45.7012;24.0706;12.3342;
82002654063294;45.6402;24.1072;12.2610;
82002664063294;45.6768;24.1194;12.1512;
82002674063294;45.7378;24.1438;12.0902;
82002684063294;45.8232;24.1194;11.9926;
82002694063294;45.8354;24.1682;11.8828;
82002704063294;45.8964;24.2658;11.8218;
82002714063294;45.8720;24.3024;11.9194;
82002724063294;45.8842;24.3512;11.9072;
82002734063294;45.8598;24.3878;11.9316;
82002744063294;45.8232;24.4366;12.0170;
82002754063294;45.6890;24.4366;12.1512;
82002764063294;45.5426;24.5220;12.3586;
82002774063294;45.4816;24.5220;12.5538;
82002784063294;45.5304;24.5098;12.4196;
82002794063294;45.6646;24.5342;12.2366;
82002804063294;45.7012;24.5098;12.2488;
82002814063294;45.8720;24.5220;12.1756;
82002824063294;45.9452;24.5464;12.1512;
82002834063294;46.1282;24.5220;12.0414;
82002844063294;46.2014;24.4488;11.9316;
82002854063294;46.2746;24.4244;11.8584;
82002864063294;46.0428;24.4000;12.1878;
82002874063294;45.8842;24.3634;12.4806;
82002884063294;45.7622;24.3268;12.5904;
82002894063294;45.6646;24.2658;12.7246;
82002904063294;45.6524;24.2048;12.7978;
82002914063294;45.7134;24.1926;12.8344;
82002924063294;45.8720;24.1804;12.7124;
82002934063294;45.9452;24.1682;12.6758;
82002944063294;46.0306;24.1438;12.6270;
82002954063294;46.1038;24.0584;12.5660;
82002964063294;46.1160;23.9974;12.5904;
82002974063294;46.0916;23.9608;12.6880;
82002984063294;46.1526;23.8998;12.6758;
82002994063294;46.0916;23.8388;12.6880;
82003004063294;45.9086;23.8388;12.9930;
82003014063294;45.8964;23.8388;13.1028;
82003024063294;45.9940;23.8510;13.0418;
82003034063294;46.0062;23.9120;13.0418;
82003044063294;45.9940;23.9486;13.1638;
82003054063294;45.9452;23.9486;13.1760;
82003064063294;45.8110;23.9730;13.2980;
82003074063294;45.9452;24.0096;13.1760;
82003084063294;46.1160;23.9730;12.9076;
82003094063294;46.2380;23.9608;12.7490;
82003104063294;46.3112;23.9608;12.5538;
82003114063294;46.3234;23.9364;12.4806;
82003124063294;46.4210;23.9608;12.2976;
82003134063294;46.6040;23.9852;11.9926;
82003144063294;46.7870;23.9974;11.7852;
82003154063294;46.7382;23.9974;11.7974;
82003164063294;46.7260;24.0218;11.7730;
82003174063294;46.6650;23.9974;11.8096;
82003184063294;46.6528;23.9730;11.8096;
82003194063294;46.7260;23.9974;11.7852;
82003204063294;46.5918;23.9364;11.9194;
82003214063294;46.4698;23.8998;12.0780;
82003224063294;46.3966;23.8754;12.1878;
82003234063294;46.2624;23.8510;12.3830;
82003244063294;46.2258;23.8510;12.5172;
82003254063294;46.2502;23.8876;12.5294;
82003264063294;46.1038;23.8144;12.7368;
82003274063294;46.0062;23.7900;12.8954;
82003284063294;46.0428;23.8144;12.9076;
82003294063294;46.1770;23.7778;12.8588;
82003304063294;46.1526;23.7656;12.9198;
82003314063294;46.1526;23.7778;12.8832;
82003324063294;46.0550;23.7168;12.9930;
82003334063294;45.8354;23.6436;13.2126;
82003344063294;45.7134;23.6680;13.3590;
82003354063294;45.5060;23.6314;13.6030;
82003364063294;45.4206;23.5704;13.6518;
82003374063294;45.1156;23.5094;14.0300;
82003384063294;45.0790;23.4972;13.9690;
82003394063294;45.1400;23.4850;13.9202;
82003404063294;45.3840;23.5094;13.6274;
82003414063294;45.6280;23.5094;13.3224;
82003424063294;45.9086;23.5216;13.0296;
82003434063294;46.1770;23.4972;12.6026;
82003444063294;46.3844;23.5216;12.3464;
82003454063294;46.6406;23.5460;12.0536;
82003464063294;46.6772;23.5338;12.0414;
82003474063294;46.6894;23.4728;12.0536;
82003484063294;46.4454;23.3996;12.3098;
82003494063294;46.3722;23.3630;12.3952;
82003504063294;46.1770;23.2654;12.5416;
82003514063294;46.0794;23.2654;12.7978;
82003524063294;45.8842;23.1678;13.1150;
82003534063294;45.8232;23.1068;13.1394;
82003544063294;45.8964;23.0702;13.0784;
82003554063294;45.8720;23.0946;13.1272;
82003564063294;46.0672;23.0824;12.8832;
82003574063294;46.1892;23.0824;12.9076;
82003584063294;46.3356;23.0824;12.8588;
82003594063294;46.4088;23.0824;12.7612;
82003604063294;46.4942;23.1068;12.7368;
82003614063294;46.5308;23.1068;12.8100;
82003624063294;46.5552;23.0824;12.7734;
82003634063294;46.6284;23.0336;12.6636;
82003644063294;46.6284;23.0458;12.8100;
82003654063294;46.6650;23.0214;12.6636;
82003664063294;46.7626;23.0214;12.6148;
82003674063294;46.9700;22.9848;12.3708;
82003684063294;47.2262;22.9238;12.1024;
82003694063294;47.4092;22.9116;11.8950;
82003704063294;47.5190;22.9238;11.8340;
82003714063294;47.7142;22.9238;11.7242;
82003724063294;47.8728;22.9238;11.5534;
82003734063294;47.9216;22.8872;11.6144;
82003744063294;47.9704;22.8872;11.4924;
82003754063294;47.8484;22.8872;11.6754;
82003764063294;47.7752;22.9116;11.7364;
82003774063294;47.7264;22.9116;11.7242;
82003784063294;47.6898;22.8750;11.8584;
82003794063294;47.5312;22.8750;11.9560;
82003804063294;47.4702;22.8262;12.1024;
82003814063294;47.3848;22.8628;12.2610;
82003824063294;47.3360;22.8262;12.3220;
82003834063294;47.3116;22.7896;12.3342;
82003844063294;47.2750;22.8262;12.3342;
82003854063294;47.2628;22.8018;12.3830;
82003864063294;47.2140;22.8384;12.4318;
82003874063294;47.2628;22.8628;12.4318;
82003884063294;47.2018;22.8628;12.4318;
82003894063294;47.1774;22.8628;12.3586;
82003904063294;47.0920;22.9360;12.5172;
82003914063294;47.0188;22.9482;12.6880;
82003924063294;47.1164;22.9482;12.6880;
82003934063294;47.1896;22.9970;12.6392;
82003944063294;47.2750;23.0214;12.5416;
82003954063294;47.2506;23.0214;12.5660;
82003964063294;47.2750;23.1068;12.5538;
82003974063294;47.3238;23.1556;12.5538;
82003984063294;47.3604;23.1800;12.4806;
82003994063294;47.4824;23.2654;12.3708;
82004004063294;47.3116;23.3264;12.4196;
82004014063294;47.0554;23.3630;12.7490;
82004024063294;46.8114;23.3386;13.1150;
82004034063294;46.5308;23.3630;13.4444;
82004044063294;46.2380;23.3874;13.7982;
82004054063294;46.0184;23.3874;13.9812;
82004064063294;45.8964;23.4362;14.1276;
82004074063294;45.7012;23.4606;14.4570;
82004084063294;45.5060;23.4728;14.8108;
82004094063294;45.3962;23.5094;15.0060;
82004104063294;45.5060;23.6314;14.8840;
82004114063294;45.6158;23.6802;14.7132;
82004124063294;45.7378;23.7290;14.5180;
82004134063294;45.8720;23.7778;14.3960;
82004144063294;45.8598;23.7778;14.4936;
82004154063294;45.9330;23.8144;14.2252;
82004164063294;46.1282;23.8510;13.8714;
82004174063294;46.2990;23.8632;13.6030;
82004184063294;46.1648;23.8022;13.5054;
82004194063294;46.2136;23.8266;13.4200;
82004204063294;46.2868;23.7900;13.2980;
82004214063294;46.1770;23.7656;13.3102;
82004224063294;46.2258;23.7778;13.2248;
82004234063294;46.1770;23.7900;13.1882;
82004244063294;46.0916;23.7656;13.2248;
82004254063294;46.1282;23.7900;13.1272;
82004264063294;46.1526;23.8632;13.0662;
82004274063294;46.2014;23.8754;13.0418;
82004284063294;46.0794;23.9120;13.1394;
82004294063294;46.0916;23.9608;13.0418;
82004304063294;46.0916;23.9486;12.9686;
82004314063294;46.1160;23.8998;12.9320;
82004324063294;46.2014;23.9608;12.9320;
82004334063294;46.0306;23.9974;13.0052;
82004344063294;46.0550;24.0340;13.0174;
82004354063294;45.8720;24.0462;13.0784;
82004364063294;45.8842;24.0584;13.0174;
82004374063294;45.8354;24.0950;13.1272;
82004384063294;45.8110;24.1560;13.1028;
82004394063294;45.6524;24.2536;13.1882;
82004404063294;45.4816;24.3268;13.3224;
82004414063294;45.2254;24.3390;13.5420;
82004424063294;44.9326;24.3024;13.8592;
82004434063294;45.0790;24.3878;13.6518;
82004444063294;45.1156;24.4244;13.5298;
82004454063294;45.1766;24.4366;13.3468;
82004464063294;45.1034;24.5220;13.2126;
82004474063294;45.2132;24.5464;13.0906;
82004484063294;45.2010;24.5708;12.8832;
82004494063294;45.4328;24.6318;12.4562;
82004504063294;45.6890;24.7294;11.9804;
82004514063294;45.4938;24.7294;11.9682;
82004524063294;45.3962;24.7904;11.9438;
82004534063294;45.2010;24.8636;11.9804;
82004544063294;45.0668;24.9124;12.0292;
82004554063294;44.9204;24.9490;12.0780;
82004564063294;44.8350;24.9856;12.1634;
82004574063294;44.7008;25.0466;12.2854;
82004584063294;44.5056;25.0710;12.3952;
82004594063294;44.4324;25.1320;12.5660;
82004604063294;44.1884;25.1442;12.8100;
82004614063294;44.1396;25.1930;12.8710;
82004624063294;44.1396;25.2296;12.8832;
82004634063294;44.1762;25.2418;12.7246;
82004644063294;44.4080;25.2662;12.3464;
82004654063294;44.3958;25.2540;12.3098;
82004664063294;44.4690;25.2784;12.2244;
82004674063294;44.3836;25.2906;12.2854;
82004684063294;44.5422;25.3028;12.0292;
82004694063294;44.6032;25.2540;11.9438;
82004704063294;44.5422;25.1930;11.9438;
82004714063294;44.4324;25.1808;12.1268;
82004724063294;44.2128;25.1564;12.4684;
82004734063294;44.3348;25.1442;12.3098;
82004744063294;44.4202;25.1320;12.2976;
82004754063294;44.5544;25.0588;12.0292;
82004764063294;44.5910;25.0100;12.0170;
82004774063294;44.7130;24.9978;11.8828;
82004784063294;44.8594;24.9612;11.6754;
82004794063294;45.1156;24.9612;11.3826;
82004804063294;45.2620;24.8880;11.0776;
82004814063294;45.3962;24.8270;10.9312;
82004824063294;45.5548;24.7416;10.7238;
82004834063294;45.6646;24.6928;10.6384;
82004844063294;45.8476;24.6074;10.3578;
82004854063294;45.9452;24.4854;10.2480;
82004864063294;46.1282;24.3878;9.9674;
82004874063294;46.1770;24.2414;9.9064;
82004884063294;46.2136;24.1926;9.9796;
82004894063294;46.2868;24.0584;9.9552;
82004904063294;46.3234;23.9242;9.9552;
82004914063294;46.4454;23.8266;9.9186;
82004924063294;46.4332;23.7290;10.1138;
82004934063294;46.4088;23.6802;10.1016;
82004944063294;46.3600;23.6314;10.4432;
82004954063294;46.3844;23.5582;10.5408;
82004964063294;46.4210;23.4240;10.5530;
82004974063294;46.3722;23.3874;10.7604;
82004984063294;46.3356;23.3508;10.8092;
82004994063294;46.3722;23.3264;10.8946;
82005004063294;46.3966;23.3142;10.9800;
82005014063294;46.4210;23.2654;11.0898;
82005024063294;46.3478;23.2166;11.2850;
82005034063294;46.2380;23.1556;11.3704;
82005044063294;46.3234;23.1312;11.3460;
82005054063294;46.3722;23.0824;11.2606;
82005064063294;46.2746;23.0580;11.4558;
82005074063294;46.2868;22.9970;11.5290;
82005084063294;46.2624;22.9848;11.6144;
82005094063294;46.3600;22.9848;11.6876;
82005104063294;46.6162;22.9604;11.4558;
82005114063294;46.7870;22.9970;11.4680;
82005124063294;46.7382;23.0092;11.6510;
82005134063294;46.7992;23.0458;11.7120;
82005144063294;46.9822;23.0336;11.6754;
82005154063294;46.9822;23.0458;11.6510;
82005164063294;47.0676;23.0214;11.5534;
82005174063294;47.1164;22.9970;11.5656;
82005184063294;47.0310;22.9848;11.6876;
82005194063294;47.0554;22.9238;11.6388;
82005204063294;47.0188;22.8994;11.7608;
82005214063294;46.9456;22.8506;11.9804;
82005224063294;46.8724;22.8262;12.1634;
82005234063294;46.7748;22.7896;12.4318;
82005244063294;46.7626;22.7286;12.5782;
82005254063294;46.7748;22.6920;12.6636;
82005264063294;46.8358;22.6554;12.6514;
82005274063294;46.9334;22.6188;12.7002;
82005284063294;47.1530;22.5700;12.5660;
82005294063294;47.1652;22.5334;12.5904;
82005304063294;47.2140;22.4846;12.5538;
82005314063294;47.4214;22.4480;12.4440;
82005324063294;47.5922;22.4358;12.2976;
82005334063294;47.6776;22.4236;12.2732;
82005344063294;47.6532;22.3870;12.3098;
82005354063294;47.5800;22.3870;12.3830;
82005364063294;47.5190;22.4114;12.4440;
82005374063294;47.6898;22.4480;12.2610;
82005384063294;47.8606;22.4724;12.1634;
82005394063294;47.8240;22.4602;12.1756;
82005404063294;47.7020;22.4724;12.3464;
82005414063294;47.5190;22.4358;12.6026;
82005424063294;47.6532;24.2658;12.7002;
82005434063294;47.6410;24.3512;12.7246;
82005444063294;47.6288;24.4000;12.7734;
82005454063294;47.5800;24.3878;12.8588;
82005464063294;47.5556;24.4122;12.8832;
82005474063294;47.5678;24.5220;12.9198;
82005484063294;47.5678;24.5830;12.9198;
82005494063294;47.5434;24.6928;12.9198;
82005504063294;47.2628;24.6928;13.1272;
82005514063294;47.1896;24.6928;13.2370;
82005524063294;47.0676;24.7050;13.2858;
82005534063294;46.9090;24.7782;13.4200;
82005544063294;46.7504;24.7904;13.6396;
82005554063294;46.6406;24.7782;13.6640;
82005564063294;46.5918;24.8148;13.6884;
82005574063294;46.7138;24.8514;13.5542;
82005584063294;46.8846;24.9246;13.3590;
82005594063294;46.9700;24.9490;13.2492;
82005604063294;47.1530;24.9856;13.0906;
82005614063294;47.1530;25.0100;13.0784;
82005624063294;47.2140;25.0466;13.0174;
82005634063294;47.1774;25.0832;13.1028;
82005644063294;47.1530;25.0954;13.2004;
82005654063294;46.9822;25.0832;13.4322;
82005664063294;46.6650;25.0710;13.7738;
82005674063294;46.4698;25.0588;13.9934;
82005684063294;46.2258;25.0344;14.1764;
82005694063294;46.1404;25.0222;14.4082;
82005704063294;46.0306;25.0222;14.4936;
82005714063294;46.0550;25.0100;14.4448;
82005724063294;46.0672;25.0222;14.4204;
82005734063294;46.2136;25.0344;14.2252;
82005744063294;46.4454;25.0710;14.0422;
82005754063294;46.4820;25.1076;14.0056;
82005764063294;46.5674;25.1320;13.9324;
82005774063294;46.5918;25.1442;13.8104;
82005784063294;46.4942;25.1320;13.8714;
82005794063294;46.3722;25.1442;14.0666;
82005804063294;46.3112;25.1076;14.1154;
82005814063294;46.2624;25.1198;14.0910;
82005824063294;46.3844;25.1198;13.9446;
82005834063294;46.5308;25.1564;13.7128;
82005844063294;46.4942;25.1442;13.7616;
82005854063294;46.5796;25.1320;13.5786;
82005864063294;46.7138;25.1564;13.2248;
82005874063294;46.9456;25.1686;12.8222;
82005884063294;46.9944;25.1564;12.5416;
82005894063294;46.7138;25.1320;12.8222;
82005904063294;46.6284;25.1320;12.8832;
82005914063294;46.5918;25.1320;12.8100;
82005924063294;46.6528;25.1320;12.7368;
82005934063294;46.6528;25.1442;12.7612;
82005944063294;46.7016;25.1564;12.8344;
82005954063294;46.6528;25.2296;12.8588;
82005964063294;46.6406;25.2784;12.8588;
82005974063294;46.9578;25.3272;12.5172;
82005984063294;46.9700;25.3516;12.4684;
82005994063294;46.9090;25.3638;12.5294;
82006004063294;46.9456;25.4004;12.5294;
82006014063294;47.0188;25.4370;12.3830;
82006024063294;47.1652;25.4858;12.2366;
82006034063294;47.2262;25.4492;12.2366;
82006044063294;47.3970;25.4492;12.1634;
82006054063294;47.4458;25.4370;12.1024;
82006064063294;47.4824;25.4248;12.0292;
82006074063294;47.5434;25.4370;11.9560;
82006084063294;47.5434;25.4004;11.8706;
82006094063294;47.5800;25.4126;11.8706;
82006104063294;47.4458;25.3638;11.9438;
82006114063294;47.4214;25.4004;11.9804;
82006124063294;47.2140;25.4004;12.0780;
82006134063294;47.0676;25.3882;12.2732;
82006144063294;46.8968;25.3516;12.4928;
82006154063294;46.7626;25.3272;12.6514;
82006164063294;46.6040;25.3516;12.9564;
82006174063294;46.4576;25.3272;13.1028;
82006184063294;46.3478;25.3516;13.2736;
82006194063294;46.2624;25.3272;13.2858;
82006204063294;46.2990;25.3150;13.2980;
82006214063294;46.3112;25.3516;13.2858;
82006224063294;46.3844;25.4248;13.1882;
82006234063294;46.4332;25.4248;13.1028;
82006244063294;46.5308;25.4248;12.9198;
82006254063294;46.4942;25.4492;12.9930;
82006264063294;46.5918;25.4736;12.9442;
82006274063294;46.5552;25.4492;13.0540;
82006284063294;46.5796;25.4370;13.0662;
82006294063294;46.6894;25.3760;12.9442;
82006304063294;46.7260;25.3394;12.9198;
82006314063294;47.1652;25.3516;12.4928;
82006324063294;47.1164;25.3272;12.5294;
82006334063294;47.0676;25.2540;12.5782;
82006344063294;47.0188;25.1930;12.6026;
82006354063294;46.9700;25.1930;12.6392;
82006364063294;46.8846;25.2540;12.6758;
82006374063294;46.8480;25.2540;12.7246;
82006384063294;46.7992;25.2784;12.7368;
82006394063294;46.4332;25.3028;13.1638;
82006404063294;46.4576;25.3150;13.0784;
82006414063294;46.5430;25.3760;12.9198;
82006424063294;46.6528;25.4370;12.8222;
82006434063294;46.7748;25.4492;12.6270;
82006444063294;46.9334;25.4614;12.5538;
82006454063294;47.0066;25.5102;12.3586;
82006464063294;47.1286;25.4736;12.1634;
82006474063294;47.1774;25.4736;12.0536;
82006484063294;47.2872;25.4980;11.8828;
82006494063294;47.4336;25.5346;11.6876;
82006504063294;47.2750;25.5346;11.7730;
82006514063294;47.1042;25.5468;12.0048;
82006524063294;46.8480;25.5468;12.2610;
82006534063294;46.7382;25.5712;12.4440;
82006544063294;46.7138;25.6444;12.5294;
82006554063294;46.6040;25.6688;12.7124;
82006564063294;46.5796;25.6688;12.8100;
82006574063294;46.5552;25.7420;12.9808;
82006584063294;46.8114;25.7420;12.6392;
82006594063294;47.1286;25.7786;12.2854;
82006604063294;47.5068;25.8030;11.8462;
82006614063294;47.7142;25.7908;11.5778;
82006624063294;47.7508;25.8152;11.4924;
82006634063294;47.8362;25.8030;11.2850;
82006644063294;47.9460;25.8640;11.2240;
82006654063294;47.9582;25.7542;11.0898;
82006664063294;47.9216;25.7664;11.2606;
82006674063294;47.8484;25.7298;11.3826;
82006684063294;47.3604;25.6810;11.9072;
82006694063294;47.2384;25.6810;12.0658;
82006704063294;47.1896;25.6078;12.1756;
82006714063294;47.1896;25.6078;12.2732;
82006724063294;47.1530;25.5834;12.3586;
82006734063294;47.0066;25.6078;12.5660;
82006744063294;46.8724;25.5712;12.6758;
82006754063294;46.7626;25.5956;12.8344;
82006764063294;46.9578;25.6078;12.6270;
82006774063294;46.7992;25.5834;12.8344;
82006784063294;46.6772;25.5590;12.9442;
82006794063294;46.6650;25.5590;12.9320;
82006804063294;46.6650;25.5346;12.9198;
82006814063294;46.8480;25.5590;12.6514;
82006824063294;46.8602;25.5834;12.6636;
82006834063294;46.9944;25.5468;12.4196;
82006844063294;47.1896;25.5590;12.1512;
82006854063294;47.3604;25.5712;11.9316;
82006864063294;47.5190;25.5834;11.6876;
82006874063294;47.5312;25.5590;11.5900;
82006884063294;47.4702;25.5224;11.5778;
82006894063294;47.3604;25.4858;11.7730;
82006904063294;47.3604;25.4736;11.7364;
82006914063294;47.3360;25.4858;11.7486;
82006924063294;47.3848;25.4980;11.7364;
82006934063294;47.4336;25.5224;11.6754;
82006944063294;47.4214;25.5346;11.6998;
82006954063294;47.3848;25.5712;11.6754;
82006964063294;47.5068;25.6078;11.4924;
82006974063294;47.6776;25.6566;11.2118;
82006984063294;47.8240;25.6932;11.0044;
82006994063294;47.8240;25.7298;10.9800;
82007004063294;47.7264;25.7298;11.0532;
82007014063294;47.6044;25.7420;11.2240;
82007024063294;47.4946;25.7786;11.3582;
82007034063294;47.4824;25.7908;11.4802;
82007044063294;47.3848;25.8152;11.5046;
82007054063294;47.3116;25.8152;11.5168;
82007064063294;47.2750;25.8518;11.5046;
82007074063294;47.2872;25.8518;11.4802;
82007084063294;47.3482;25.8640;11.2606;
82007094063294;47.4580;25.8884;10.9922;
82007104063294;47.6532;25.9494;10.6628;
82007114063294;47.8484;25.9616;10.3822;
82007124063294;47.7630;25.9860;10.5408;
82007134063294;47.6532;25.9616;10.6262;
82007144063294;47.4702;25.9860;10.8458;
82007154063294;47.3238;25.9982;10.9922;
82007164063294;47.1286;26.0226;11.2484;
82007174063294;46.9456;26.0226;11.4558;
82007184063294;46.7260;26.0348;11.6876;
82007194063294;46.6284;26.0592;11.8218;
82007204063294;46.7138;26.0348;11.5778;
82007214063294;46.8358;26.1324;11.5046;
82007224063294;46.9700;26.1934;11.2850;
82007234063294;46.7138;26.2056;11.4924;
82007244063294;46.7504;26.2422;11.4192;
82007254063294;46.8114;26.2910;11.2728;
82007264063294;46.8236;26.3032;11.1996;
82007274063294;46.7992;26.3032;11.1264;
82007284063294;46.8236;26.3764;11.0532;
82007294063294;46.7870;26.3764;11.0776;
82007304063294;46.7870;26.3642;11.0776;
82007314063294;47.1530;26.4130;10.6506;
82007324063294;47.2384;26.4252;10.5042;
82007334063294;47.3360;26.4374;10.3822;
82007344063294;47.5068;26.4740;10.1870;
82007354063294;47.6044;26.5472;10.0406;
82007364063294;47.4824;26.5594;10.0650;
82007374063294;47.3604;26.5350;10.1138;
82007384063294;47.2262;26.4984;10.2358;
82007394063294;47.1774;26.5106;10.3090;
82007404063294;46.9700;26.4984;10.5408;
82007414063294;46.7748;26.4862;10.6994;
82007424063294;46.3112;26.4618;11.2728;
82007434063294;46.0916;26.4618;11.4436;
82007444063294;46.1526;26.4496;11.4680;
82007454063294;46.2990;26.4618;11.2972;
82007464063294;46.4698;26.4862;11.1020;
82007474063294;46.4576;26.4740;11.0410;
82007484063294;46.6406;26.4862;10.7970;
82007494063294;46.7748;26.4618;10.6262;
82007504063294;47.2506;26.4496;9.9186;
82007514063294;47.3848;26.3398;9.7844;
82007524063294;47.3604;26.3154;9.6624;
82007534063294;47.3238;26.2910;9.6136;
82007544063294;47.3360;26.2544;9.4794;
82007554063294;47.4824;26.2056;9.3452;
82007564063294;47.5434;26.1690;9.2232;
82007574063294;47.6166;26.1324;9.1744;
82007584063294;47.5434;26.1324;9.2720;
82007594063294;47.5556;26.2056;9.2720;
82007604063294;47.6898;26.1690;9.1866;
82007614063294;47.8240;26.1690;9.0768;
82007624063294;47.9338;26.1934;9.1012;
82007634063294;48.0558;26.2178;8.9426;
82007644063294;48.1900;26.7424;8.8572;
82007654063294;48.2510;26.7912;8.7474;
82007664063294;48.2998;26.7912;8.7108;
82007674063294;48.3242;26.7546;8.7474;
82007684063294;48.3486;26.7912;8.6864;
82007694063294;48.2876;26.8156;8.6376;
82007704063294;48.2632;26.8278;8.6742;
82007714063294;48.1168;26.8400;8.8328;
82007724063294;47.9338;26.8644;9.0890;
82007734063294;47.7264;26.8522;9.3696;
82007744063294;47.5922;26.8888;9.5038;
82007754063294;47.5678;26.9132;9.4550;
82007764063294;47.4458;26.9498;9.6014;
82007774063294;47.3726;26.9376;9.7356;
82007784063294;47.1408;26.9132;9.9064;
82007794063294;46.9578;26.9132;9.9674;
82007804063294;46.8724;26.9254;10.0284;
82007814063294;46.7504;26.9742;10.0406;
82007824063294;46.5918;26.9742;10.1382;
82007834063294;46.4698;27.0108;10.2480;
82007844063294;46.4454;26.9864;10.1870;
82007854063294;46.4454;27.0108;10.1138;
82007864063294;46.6284;27.0840;9.8820;
82007874063294;46.7382;27.1084;9.6746;
82007884063294;46.8236;27.1206;9.3818;
82007894063294;47.0310;27.1084;9.0402;
82007904063294;47.2140;27.0718;8.8328;
82007914063294;47.4092;27.0840;8.5888;
82007924063294;47.5068;27.1206;8.5156;
82007934063294;47.4458;27.1084;8.5156;
82007944063294;47.4458;27.0352;8.4424;
82007954063294;47.5190;27.0108;8.3814;
82007964063294;47.5678;27.0108;8.3570;
82007974063294;47.5922;26.9864;8.4058;
82007984063294;47.7264;26.9620;8.2472;
82007994063294;47.7142;27.9380;8.2838;
82008004063294;47.6166;27.9136;8.2594;
82008014063294;47.6654;27.8892;8.2106;
82008024063294;47.6654;27.9014;8.2106;
82008034063294;47.6288;27.9258;8.2228;
82008044063294;47.5556;27.9136;8.3448;
82008054063294;47.4336;27.9136;8.4180;
82008064063294;47.2750;27.8770;8.5522;
82008074063294;47.2140;27.8404;8.6620;
82008084063294;47.1774;27.7794;8.6986;
82008094063294;47.2872;27.7306;8.6132;
82008104063294;47.2506;27.6452;8.6010;
82008114063294;47.3970;27.6086;8.4668;
82008124063294;47.5068;27.5842;8.3326;
82008134063294;47.5190;27.5354;8.2472;
82008144063294;47.5922;27.5476;8.2350;
82008154063294;47.5556;27.5110;8.2350;
82008164063294;47.6898;27.4866;8.0642;
82008174063294;47.7752;27.5476;7.9666;
82008184063294;47.8972;27.5476;7.9056;
82008194063294;47.8606;27.5110;8.0032;
82008204063294;47.9826;27.4866;7.8934;
82008214063294;48.2266;27.4622;7.6982;
82008224063294;48.2998;27.4256;7.5518;
82008234063294;48.3608;27.4012;7.4542;
82008244063294;48.2876;27.4012;7.6372;
82008254063294;48.2022;27.3402;7.8690;
82008264063294;48.0680;27.2792;8.0032;
82008274063294;47.9460;27.2548;8.1374;
82008284063294;47.7020;27.1816;8.3692;
82008294063294;47.5190;27.1694;8.6498;
82008304063294;47.5312;27.1328;8.8084;
82008314063294;47.5922;27.0962;8.7718;
82008324063294;47.7020;26.9986;8.7108;
82008334063294;47.7020;26.9376;8.6254;
82008344063294;47.9094;26.8644;8.3936;
82008354063294;48.0680;26.8156;8.1862;
82008364063294;48.2632;26.7912;8.0276;
82008374063294;48.4584;26.7302;7.9422;
82008384063294;48.5316;26.6204;7.7714;
82008394063294;48.6414;26.5472;7.6982;
82008404063294;48.7634;26.5106;7.6006;
82008414063294;48.9830;26.4740;7.3688;
82008424063294;49.0928;26.4618;7.3932;
82008434063294;49.1904;26.4008;7.3932;
82008444063294;49.2270;26.3276;7.3688;
82008454063294;49.3612;26.2422;7.2590;
82008464063294;49.4466;26.2300;7.2712;
82008474063294;49.5076;26.1568;7.3322;
82008484063294;49.5564;26.0592;7.3078;
82008494063294;49.4344;25.9616;7.6128;
82008504063294;49.3368;25.8396;7.7958;
82008514063294;49.2880;25.7542;7.9178;
82008524063294;49.2880;25.5956;8.0398;
82008534063294;49.1904;25.5224;8.1862;
82008544063294;49.1294;25.4126;8.2472;
82008554063294;49.1660;25.3272;8.3692;
82008564063294;49.0806;25.2296;8.5766;
82008574063294;49.0928;25.1442;8.6498;
82008584063294;49.0074;25.0710;8.7840;
82008594063294;48.9464;24.9734;9.0158;
82008604063294;48.8122;24.9368;9.2354;
82008614063294;48.8244;24.8636;9.3208;
82008624063294;48.7512;24.8270;9.5282;
82008634063294;48.6170;24.7294;9.7234;
82008644063294;48.5194;24.6928;9.9064;
82008654063294;48.4218;24.6440;10.0772;
82008664063294;48.4096;24.6196;10.1260;
82008674063294;48.3974;24.6074;10.2114;
82008684063294;48.4096;24.5952;10.2358;
82008694063294;48.2144;24.5464;10.5042;
82008704063294;48.0192;24.4488;10.8824;
82008714063294;47.8240;24.4366;11.1874;
82008724063294;47.6776;24.4000;11.5046;
82008734063294;47.5678;24.3268;11.7486;
82008744063294;47.5312;24.2414;11.8706;
82008754063294;47.4946;24.1438;11.9926;
82008764063294;47.5190;24.0950;12.0780;
82008774063294;47.6044;24.0340;12.0536;
82008784063294;47.7996;23.9974;11.9438;
82008794063294;47.8850;23.9730;12.0292;
82008804063294;47.9582;23.8998;12.0048;
82008814063294;48.0680;23.8510;12.0048;
82008824063294;48.1168;23.7778;12.1390;
82008834063294;48.0314;23.6802;12.2976;
82008844063294;47.9216;23.5704;12.6148;
82008854063294;47.7874;23.4728;12.8710;
82008864063294;47.5434;23.3142;13.1516;
82008874063294;47.5068;23.1678;13.2736;
82008884063294;47.5190;22.9970;13.2980;
82008894063294;47.5068;22.8750;13.3712;
82008904063294;47.4824;22.7774;13.5176;
82008914063294;47.6410;22.6554;13.4932;
82008924063294;47.8240;22.5334;13.3468;
82008934063294;48.0558;22.3870;13.2248;
82008944063294;48.1778;22.2528;13.2980;
82008954063294;48.2266;22.0942;13.3102;
82008964063294;48.2266;21.9234;13.4566;
82008974063294;48.3120;21.7404;13.5420;
82008984063294;48.2876;21.5208;13.5908;
82008994063294;48.2510;21.3378;13.7128;
82009004063294;48.1900;21.1548;13.8470;
82009014063294;48.1534;21.0206;13.8226;
82009024063294;48.3608;20.9230;13.4810;
82009034063294;48.4706;20.8620;13.2248;
82009044063294;48.5560;20.8254;13.1028;
82009054063294;48.4340;20.7766;13.1272;
82009064063294;48.4584;20.7766;12.9930;
82009074063294;48.4950;20.7766;12.8344;
82009084063294;48.4340;20.7644;12.7490;
82009094063294;48.4218;20.7766;12.8100;
82009104063294;48.3486;20.7400;12.9808;
82009114063294;48.3486;20.6912;12.9808;
82009124063294;48.5072;20.6912;12.7734;
82009134063294;48.7024;20.6668;12.5294;
82009144063294;48.6780;20.5692;12.5050;
82009154063294;48.7756;20.4838;12.3830;
82009164063294;48.8732;20.3984;12.2000;
82009174063294;48.8244;20.3130;12.1390;
82009184063294;48.8122;20.2276;11.9926;
82009194063294;48.8122;20.1910;12.0658;
82009204063294;48.6414;20.0934;12.2366;
82009214063294;48.4584;19.9714;12.5416;
82009224063294;48.3852;19.9226;12.8588;
82009234063294;48.2388;19.8494;13.1638;
82009244063294;48.1534;19.7518;13.4078;
82009254063294;48.0802;19.6054;13.7494;
82009264063294;47.9582;19.4346;14.0666;
82009274063294;47.9338;19.2516;14.1886;
82009284063294;47.9094;19.0686;14.4326;
82009294063294;48.1290;18.9100;14.2008;
82009304063294;48.2998;18.7270;13.9934;
82009314063294;48.3974;18.5318;13.8958;
82009324063294;48.5560;18.3854;13.8714;
82009334063294;48.8366;18.2146;13.4322;
82009344063294;49.1538;18.0438;13.1516;
82009354063294;49.3246;17.8608;13.0174;
82009364063294;49.5320;17.6900;12.7612;
82009374063294;49.5564;17.5070;12.7612;
82009384063294;49.6174;17.3728;12.7612;
82009394063294;49.6052;17.1776;12.8588;
82009404063294;49.6662;17.0068;12.7978;
82009414063294;49.6662;16.8360;12.9320;
82009424063294;49.5930;16.7018;13.0662;
82009434063294;49.6052;16.5798;13.2004;
82009444063294;49.5686;16.4578;13.2614;
82009454063294;49.6418;16.3480;13.2614;
82009464063294;49.6906;16.1528;13.2492;
82009474063294;49.8248;16.0186;13.1760;
82009484063294;49.8858;15.8600;13.1882;
82009494063294;49.8980;15.7502;13.2980;
82009504063294;49.8248;15.6160;13.3956;
82009514063294;49.7638;15.4574;13.4688;
82009524063294;49.8004;15.3110;13.5176;
82009534063294;49.7272;15.1890;13.6762;
82009544063294;49.7150;15.0670;13.8104;
82009554063294;49.7150;14.9450;13.8470;
82009564063294;49.7272;14.8230;14.0056;
82009574063294;49.7760;14.6644;14.0666;
82009584063294;49.9102;14.5302;14.0544;
82009594063294;49.9956;14.4204;14.1886;
82009604063294;50.0200;14.2496;14.3350;
82009614063294;49.9346;14.0910;14.5790;
82009624063294;49.8858;13.9446;14.8108;
82009634063294;49.7638;13.8226;15.1524;
82009644063294;49.5320;13.6762;15.5306;
82009654063294;49.1050;19.2272;14.9450;
82009664063294;48.9098;19.1296;15.3232;
82009674063294;48.8000;19.0320;15.5428;
82009684063294;48.7024;18.9466;15.7380;
82009694063294;48.6902;18.8734;15.8966;
82009704063294;48.5682;18.7880;16.0430;
82009714063294;48.5804;18.7148;16.0674;
82009724063294;48.6292;18.6904;16.0552;
82009734063294;48.6658;18.6416;16.0308;
82009744063294;48.6902;18.5318;16.0064;
82009754063294;48.7268;18.4586;15.9820;
82009764063294;48.6292;18.4586;16.0430;
82009774063294;48.5560;18.3976;16.1162;
82009784063294;48.5194;18.3732;16.1406;
82009794063294;48.5804;18.4220;16.1284;
82009804063294;48.7146;18.4098;15.9942;
82009814063294;48.8122;18.4098;15.9820;
82009824063294;48.7268;18.4220;16.0674;
82009834063294;48.6658;18.4464;16.0796;
82009844063294;48.6658;18.4464;16.1528;
82009854063294;48.7024;18.4952;16.0918;
82009864063294;48.6292;18.5074;16.2016;
82009874063294;48.5072;18.4342;16.3602;
82009884063294;48.2388;18.3732;16.5798;
82009894063294;48.0680;18.3488;16.7872;
82009904063294;47.9704;18.3244;16.9092;
82009914063294;47.9338;18.3122;16.9580;
82009924063294;48.0070;18.3000;16.9458;
82009934063294;47.9216;18.2390;17.0678;
82009944063294;47.8972;18.2024;17.1654;
82009954063294;47.8362;18.1902;17.2752;
82009964063294;47.9094;18.1658;17.2508;
82009974063294;47.8972;18.1414;17.3728;
82009984063294;47.8240;18.1170;17.4826;
82009994063294;47.9094;18.0560;17.5680;
82010004063294;47.9094;18.0072;17.6168;
82010014063294;47.9582;17.9950;17.6046;
82010024063294;48.0192;17.9462;17.6778;
82010034063294;47.9338;17.8852;17.7388;
82010044063294;47.7752;17.8608;18.0072;
82010054063294;47.6898;17.8120;18.0316;
82010064063294;47.7996;17.8120;18.0316;
82010074063294;47.7508;17.8242;18.0804;
82010084063294;47.7752;17.7998;18.0560;
82010094063294;47.8606;17.8120;17.9706;
82010104063294;48.1290;17.8608;17.6290;
82010114063294;48.3608;17.8974;17.3118;
82010124063294;48.7146;17.9462;16.9092;
82010134063294;48.9830;17.9462;16.6408;
82010144063294;49.1904;17.9462;16.3236;
82010154063294;49.2636;17.9462;16.1284;
82010164063294;49.3368;18.0072;16.0064;
82010174063294;49.3612;18.0438;15.9820;
82010184063294;49.2392;18.0438;16.0918;
82010194063294;49.2148;18.0804;16.2748;
82010204063294;49.1294;18.1170;16.3846;
82010214063294;49.2514;18.1170;16.2626;
82010224063294;49.3002;18.1658;16.2260;
82010234063294;49.3734;18.1658;16.2016;
82010244063294;49.3978;18.1658;16.1528;
82010254063294;49.4222;18.1292;16.1284;
82010264063294;49.3734;18.1170;16.1528;
82010274063294;49.3612;18.1048;16.1772;
82010284063294;49.2392;18.1048;16.2748;
82010294063294;48.9708;18.1536;16.4944;
82010304063294;48.7390;18.1292;16.8360;
82010314063294;48.5194;18.1536;17.1654;
82010324063294;48.2754;18.1536;17.4826;
82010334063294;48.0314;18.1414;17.7510;
82010344063294;48.0802;18.1658;17.6900;
82010354063294;48.0680;18.1170;17.5924;
82010364063294;48.2266;18.1292;17.3850;
82010374063294;48.3364;18.0926;17.2752;
82010384063294;48.5316;18.0438;17.0312;
82010394063294;48.7146;18.0072;16.7872;
82010404063294;48.8244;17.9340;16.6164;
82010414063294;49.0806;17.9096;16.3724;
82010424063294;48.7024;17.8486;16.8970;
82010434063294;48.6414;17.8364;16.9824;
82010444063294;48.5682;17.7754;17.1776;
82010454063294;48.5072;17.7266;17.2874;
82010464063294;48.2022;17.7266;17.5680;
82010474063294;48.0070;17.6900;17.8364;
82010484063294;47.7996;17.6290;18.0682;
82010494063294;47.6288;17.5924;18.2146;
82010504063294;47.9948;17.5924;17.6534;
82010514063294;48.0436;17.5680;17.6290;
82010524063294;48.0924;17.4826;17.5192;
82010534063294;48.0802;17.4582;17.4216;
82010544063294;48.2632;17.4460;17.2874;
82010554063294;48.3608;17.4094;17.0922;
82010564063294;48.4584;17.4460;17.0434;
82010574063294;48.5560;17.4704;16.9824;
82010584063294;48.4950;17.3850;17.1288;
82010594063294;48.4950;17.3240;17.1532;
82010604063294;48.4584;17.3606;17.2508;
82010614063294;48.5682;17.3484;17.1898;
82010624063294;48.6780;17.3118;17.1044;
82010634063294;48.7512;17.3362;16.9946;
82010644063294;48.7878;17.3118;16.9702;
82010654063294;48.7390;17.2508;16.9336;
82010664063294;48.7512;17.2874;16.8726;
82010674063294;48.8488;17.2630;16.7872;
82010684063294;48.8732;17.2386;16.6896;
82010694063294;48.8244;17.2386;16.7872;
82010704063294;48.7512;17.2508;16.8726;
82010714063294;48.6780;17.2264;16.9580;
82010724063294;48.7390;17.2142;16.7872;
82010734063294;48.5926;17.1776;16.9092;
82010744063294;48.5072;17.1532;16.9946;
82010754063294;48.3486;17.1776;17.1044;
82010764063294;48.2266;17.1410;17.1532;
82010774063294;48.1412;17.0800;17.1898;
82010784063294;48.1290;17.0190;17.1166;
82010794063294;48.0314;16.9824;17.1410;
82010804063294;47.9582;16.9336;17.2630;
82010814063294;48.1534;16.9580;17.0556;
82010824063294;48.2510;16.9214;16.8360;
82010834063294;48.2632;16.8848;16.5310;
82010844063294;48.3486;16.8604;16.3358;
