Sensor: mmc5603x Magnetometer Non-wakeup
Vendor: memsic
TimestampMag [ns]; MagX [uT]; MagY [uT]; MagZ [uT]
3101194648992504;49.2270;-1.3298;-6.1610;
3101194658992504;49.2270;-1.3298;-6.1610;
3101194670350212;49.1904;-1.2200;-6.2708;
3101194680350212;49.2148;-1.0736;-6.2952;
3101194690350212;49.5198;-1.1346;-6.5880;
3101194700350212;49.5808;-1.1346;-6.8930;
3101194710350212;49.7028;-1.1102;-7.0394;
3101194720350212;49.6906;-1.1224;-7.0760;
3101194730350212;49.7882;-1.0980;-7.1980;
3101194740350212;49.8614;-1.0980;-7.2956;
3101194750350212;49.8736;-1.1102;-7.2834;
3101194760350212;49.8492;-1.2200;-7.2590;
3101194770350212;49.7638;-1.1834;-7.1614;
3101194780350212;49.7882;-1.1834;-6.9784;
3101194790350212;49.6174;-1.2078;-6.7588;
3101194800350212;49.6540;-1.1712;-6.7710;
3101194810350212;49.5076;-1.2078;-6.6002;
3101194820350212;49.3490;-1.2078;-6.3806;
3101194830350212;49.3368;-1.1834;-6.3562;
3101194840350212;49.3612;-1.1834;-6.3928;
3101194850350212;49.2026;-1.2444;-6.2830;
3101194860350212;49.0562;-1.3054;-6.1976;
3101194870350212;49.1538;-1.3420;-6.4416;
3101194880350212;49.0806;-1.4152;-6.5148;
3101194890350212;49.1782;-1.4640;-6.8320;
3101194900350212;49.3002;-1.4762;-7.2224;
3101194910350212;49.3246;-1.5616;-7.4054;
3101194920350212;49.3978;-1.5982;-7.6738;
3101194930350212;49.4588;-1.5860;-7.8934;
3101194940350212;49.6174;-1.6104;-8.1008;
3101194950350212;49.6174;-1.6470;-8.0764;
3101194960350212;49.6906;-1.6836;-7.9666;
3101194970350212;49.6418;-1.7080;-7.7714;
3101194980350212;49.6052;-1.7324;-7.6128;
3101194990350212;49.6418;-1.8056;-7.5884;
3101195000350212;49.6784;-1.8422;-7.4298;
3101195010350212;49.7394;-1.8788;-7.4420;
3101195020350212;49.6540;-1.9642;-7.3688;
3101195030350212;49.6784;-2.0130;-7.3566;
3101195040350212;49.6540;-2.0740;-7.4420;
3101195050350212;49.6418;-2.1350;-7.4664;
3101195060350212;49.5564;-2.2326;-7.3444;
3101195070350212;49.3246;-2.3302;-7.0150;
3101195080350212;49.1050;-2.4034;-6.9052;
3101195090350212;48.9952;-2.5498;-6.7832;
3101195100350212;48.9952;-2.6108;-6.8076;
3101195110350212;48.8732;-2.6840;-6.8076;
3101195120350212;48.8488;-2.8060;-6.7710;
3101195130350212;48.9098;-2.8426;-6.7954;
3101195140350212;48.9342;-2.8548;-6.8808;
3101195150350212;49.0684;-2.8670;-7.0150;
3101195160350212;49.0806;-2.9402;-6.9174;
3101195170350212;48.9952;-3.0378;-6.8320;
3101195180350212;48.9342;-3.1110;-6.7222;
3101195190350212;48.9586;-3.1476;-6.6002;
3101195200350212;48.9098;-3.2086;-6.5758;
3101195210350212;48.9586;-3.2940;-6.6490;
3101195220350212;49.2026;-3.3550;-6.9296;
3101195230350212;49.4100;-3.4038;-7.2224;
3101195240350212;49.5076;-3.4160;-7.3688;
3101195250350212;49.5076;-3.3794;-7.2224;
3101195260350212;49.4832;-3.3672;-7.2102;
3101195270350212;49.3368;-3.4404;-7.1370;
3101195280350212;49.2636;-3.4038;-6.8686;
3101195290350212;49.1538;-3.4038;-6.7344;
3101195300350212;48.9220;-3.4404;-6.4416;
3101195310350212;48.8000;-3.4282;-6.2708;
3101195320350212;48.7024;-3.4038;-6.1976;
3101195330350212;48.8122;-3.3916;-6.3928;
3101195340350212;48.8244;-3.3306;-6.2830;
3101195350350212;48.8366;-3.2818;-6.2220;
3101195360350212;48.8610;-3.2696;-6.2708;
3101195370350212;48.7878;-3.1964;-6.1610;
3101195380350212;48.7756;-3.1598;-6.0146;
3101195390350212;48.6658;-3.1354;-5.8682;
3101195400350212;48.6292;-3.1354;-5.7950;
3101195410350212;48.5072;-3.1110;-5.5998;
3101195420350212;48.4584;-3.0744;-5.5510;
3101195430350212;48.3730;-3.0256;-5.4900;
3101195440350212;48.3486;-2.9402;-5.4046;
3101195450350212;48.2510;-2.9402;-5.3680;
3101195460350212;48.1778;-2.8914;-5.3680;
3101195470350212;48.0436;-2.8914;-5.3192;
3101195480350212;48.1168;-2.8304;-5.3436;
3101195490350212;48.2266;-2.7938;-5.4534;
3101195500350212;48.2998;-2.7938;-5.5632;
3101195510350212;48.4706;-2.7450;-5.6242;
3101195520350212;48.4340;-2.7572;-5.6364;
3101195530350212;48.5560;-2.6962;-5.6364;
3101195540350212;48.6292;-2.6596;-5.5998;
3101195550350212;48.6414;-2.6474;-5.4900;
3101195560350212;48.5316;-2.7206;-5.3680;
3101195570350212;48.4584;-2.7206;-5.2338;
3101195580350212;48.3730;-2.7572;-5.2704;
3101195590350212;48.2876;-2.8182;-5.3436;
3101195600350212;48.4218;-2.8182;-5.5510;
3101195610350212;48.4706;-2.9158;-5.6608;
3101195620350212;48.4462;-2.9768;-5.7218;
3101195630350212;48.5804;-2.9768;-5.9170;
3101195640350212;48.8122;-2.9768;-6.1488;
3101195650350212;48.9342;-3.0256;-6.3928;
3101195660350212;49.0928;-3.0134;-6.3928;
3101195670350212;49.2148;-3.0500;-6.3928;
3101195680350212;49.1782;-3.1354;-6.4294;
3101195690350212;49.2636;-3.1354;-6.5148;
3101195700350212;49.2758;-3.1720;-6.4660;
3101195710350212;49.1538;-3.2208;-6.3928;
3101195720350212;48.9830;-3.3306;-6.3196;
3101195730350212;49.0318;-3.3916;-6.3196;
3101195740350212;49.0196;-3.4770;-6.2952;
3101195750350212;49.0074;-3.5136;-6.3074;
3101195760350212;49.0318;-3.5380;-6.2098;
3101195770350212;48.9464;-3.6234;-6.0390;
3101195780350212;49.0196;-3.6600;-6.2342;
3101195790350212;49.1050;-3.7210;-6.3196;
3101195800350212;49.1538;-3.6966;-6.3196;
3101195810350212;49.0928;-3.7210;-6.2830;
3101195820350212;49.1294;-3.7698;-6.3440;
3101195830350212;49.1294;-3.8186;-6.3440;
3101195840350212;49.1294;-3.8918;-6.4172;
3101195850350212;49.1904;-3.9284;-6.6246;
3101195860350212;49.2880;-3.9650;-6.6490;
3101195870350212;49.4588;-4.0504;-6.8076;
3101195880350212;49.5930;-4.1358;-6.9418;
3101195890350212;49.7394;-4.2334;-7.0394;
3101195900350212;49.6906;-4.3310;-6.9784;
3101195910350212;49.7638;-4.3798;-7.1004;
3101195920350212;49.8614;-4.4408;-7.1736;
3101195930350212;49.9468;-4.5018;-7.1614;
3101195940350212;49.9224;-4.6482;-7.2224;
3101195950350212;49.9346;-4.7336;-7.1736;
3101195960350212;49.9468;-4.8312;-7.1492;
3101195970350212;49.7882;-4.9288;-7.1004;
3101195980350212;49.8370;-5.0386;-7.2346;
3101195990350212;49.7516;-5.2582;-7.1492;
3101196000350212;49.6540;-5.5144;-7.1126;
3101196010350212;49.5808;-5.7462;-7.1736;
3101196020350212;49.6540;-5.8926;-7.1492;
3101196030350212;49.6540;-6.0756;-7.1736;
3101196040350212;49.6174;-6.2586;-7.1126;
3101196050350212;49.6784;-6.5148;-7.0882;
3101196060350212;49.6662;-6.7100;-7.0638;
3101196070350212;49.7882;-6.8686;-7.1614;
3101196080350212;49.8492;-6.9906;-7.0638;
3101196090350212;49.8126;-7.1736;-6.9540;
3101196100350212;49.7394;-7.4054;-6.8808;
3101196110350212;49.7028;-7.6006;-6.8808;
3101196120350212;49.7272;-7.7470;-7.0150;
3101196130350212;49.6906;-7.9300;-7.1492;
3101196140350212;49.7272;-8.1130;-7.2468;
3101196150350212;49.7882;-8.3448;-7.3444;
3101196160350212;49.8736;-8.5278;-7.6006;
3101196170350212;50.0688;-8.6742;-7.8568;
3101196180350212;50.0200;-8.8084;-7.8324;
3101196190350212;49.8736;-8.9426;-7.7958;
3101196200350212;49.8126;-9.0768;-7.7958;
3101196210350212;49.8492;-9.1256;-7.6982;
3101196220350212;49.8858;-9.1866;-7.8080;
3101196230350212;49.7638;-9.1622;-7.7592;
3101196240350212;49.6906;-9.2354;-7.6982;
3101196250350212;49.6296;-9.2842;-7.6494;
3101196260350212;49.7150;-9.2720;-7.8568;
3101196270350212;49.8126;-9.3086;-8.0032;
3101196280350212;49.8614;-9.3086;-8.0398;
3101196290350212;49.8492;-9.2842;-8.0764;
3101196300350212;49.7882;-9.2598;-8.0520;
3101196310350212;49.7394;-9.2598;-7.9788;
3101196320350212;49.6906;-9.1866;-7.9788;
3101196330350212;49.6174;-9.1256;-7.8812;
3101196340350212;49.5564;-9.0890;-7.7592;
3101196350350212;49.5320;-9.0402;-7.7348;
3101196360350212;49.5808;-9.0158;-7.8934;
3101196370350212;49.6174;-9.0158;-8.0032;
3101196380350212;49.5564;-9.0280;-7.9788;
3101196390350212;49.5564;-9.0646;-8.0764;
3101196400350212;49.5686;-9.0646;-8.1008;
3101196410350212;49.5198;-9.0768;-8.1496;
3101196420350212;49.4710;-9.0768;-8.2350;
3101196430350212;49.5320;-9.0646;-8.2228;
3101196440350212;49.5808;-9.0768;-8.1862;
3101196450350212;49.5442;-9.0402;-8.2106;
3101196460350212;49.6784;-9.0158;-8.1984;
3101196470350212;49.7760;-8.9670;-8.2106;
3101196480350212;49.7882;-8.9304;-8.2106;
3101196490350212;49.8248;-8.8694;-8.1862;
3101196500350212;49.9346;-8.7840;-8.1618;
3101196510350212;49.8370;-8.7352;-8.1618;
3101196520350212;49.6784;-8.6620;-8.0154;
3101196530350212;49.6418;-8.6132;-7.8812;
3101196540350212;49.4100;-8.5522;-7.7348;
3101196550350212;49.2148;-8.5278;-7.5396;
3101196560350212;49.0928;-8.5156;-7.2956;
3101196570350212;48.9830;-8.5278;-7.2468;
3101196580350212;48.9098;-8.5522;-7.2224;
3101196590350212;48.9342;-8.5522;-7.2102;
3101196600350212;49.0806;-8.5888;-7.3688;
3101196610350212;49.1294;-8.6010;-7.5274;
3101196620350212;49.2758;-8.6498;-7.6372;
3101196630350212;49.4344;-8.6620;-7.7348;
3101196640350212;49.5442;-8.6742;-7.9178;
3101196650350212;49.6540;-8.6498;-7.9544;
3101196660350212;49.7882;-8.6376;-8.1252;
3101196670350212;49.8004;-8.6498;-8.0886;
3101196680350212;49.7028;-8.6132;-8.0642;
3101196690350212;49.7150;-8.6254;-8.0764;
3101196700350212;49.5808;-8.5644;-7.9544;
3101196710350212;49.5076;-8.5278;-7.9300;
3101196720350212;49.4710;-8.5522;-7.8812;
3101196730350212;49.4832;-8.6010;-7.9422;
3101196740350212;49.4832;-8.5766;-7.9056;
3101196750350212;49.4588;-8.5034;-7.9422;
3101196760350212;49.5320;-8.4668;-7.9056;
3101196770350212;49.4710;-8.4180;-7.8324;
3101196780350212;49.6906;-8.3814;-8.0398;
3101196790350212;49.8736;-8.3814;-8.2472;
3101196800350212;50.0078;-8.2838;-8.5400;
3101196810350212;50.0810;-8.1984;-8.7230;
3101196820350212;50.0078;-8.2106;-8.7108;
3101196830350212;50.0444;-8.2716;-8.7596;
3101196840350212;50.0200;-8.2960;-8.7596;
3101196850350212;50.1054;-8.3082;-8.8572;
3101196860350212;50.1054;-8.3204;-8.8084;
3101196870350212;50.0078;-8.2594;-8.7840;
3101196880350212;49.9224;-8.2350;-8.6376;
3101196890350212;49.8492;-8.2472;-8.5034;
3101196900350212;49.8248;-8.1862;-8.5888;
3101196910350212;49.8248;-8.1374;-8.5644;
3101196920350212;49.8492;-8.0642;-8.5888;
3101196930350212;49.9102;-8.0398;-8.7352;
3101196940350212;49.9224;-8.0276;-8.8084;
3101196950350212;49.9590;-8.0032;-8.7718;
3101196960350212;49.9834;-8.0032;-8.8084;
3101196970350212;50.0322;-7.9910;-8.8084;
3101196980350212;50.0810;-7.9666;-8.6498;
3101196990350212;50.0566;-7.9666;-8.6986;
3101197000350212;50.0322;-7.9544;-8.6864;
3101197010350212;49.9346;-7.9178;-8.4424;
3101197020350212;49.7882;-7.8568;-8.2106;
3101197030350212;49.7150;-7.7836;-8.1130;
3101197040350212;49.6052;-7.7836;-7.8446;
3101197050350212;49.4710;-7.6982;-7.6616;
3101197060350212;49.3612;-7.6494;-7.5884;
3101197070350212;49.3246;-7.5884;-7.4176;
3101197080350212;49.2270;-7.5762;-7.2590;
3101197090350212;49.1416;-7.5518;-7.1492;
3101197100350212;49.1050;-7.5152;-7.1980;
3101197110350212;49.0196;-7.5518;-7.1004;
3101197120350212;49.0440;-7.4908;-7.1248;
3101197130350212;49.1904;-7.4542;-7.1980;
3101197140350212;49.2758;-7.3932;-7.1980;
3101197150350212;49.2270;-7.2956;-7.1980;
3101197160350212;49.2514;-7.1858;-7.1614;
3101197170350212;49.3612;-7.0394;-7.2468;
3101197180350212;49.4344;-6.9418;-7.3688;
3101197190350212;49.4954;-6.7710;-7.3688;
3101197200350212;49.5442;-6.6246;-7.4176;
3101197210350212;49.4466;-6.4050;-7.4664;
3101197220350212;49.4710;-6.2220;-7.5518;
3101197230350212;49.6174;-5.9780;-7.6738;
3101197240350212;49.7760;-5.7218;-7.8568;
3101197250350212;49.8248;-5.4778;-7.8934;
3101197260350212;50.0200;-5.1728;-7.9544;
3101197270350212;50.2396;-4.9166;-8.1130;
3101197280350212;50.4226;-4.5872;-8.3814;
3101197290350212;50.6544;-4.3310;-8.5644;
3101197300350212;50.8374;-4.0138;-8.6620;
3101197310350212;50.8862;-3.7088;-8.6986;
3101197320350212;50.7398;-3.4160;-8.5766;
3101197330350212;50.7520;-3.0988;-8.4668;
3101197340350212;50.6422;-2.8548;-8.3448;
3101197350350212;50.5446;-2.5010;-8.2106;
3101197360350212;50.4348;-2.2082;-7.9178;
3101197370350212;50.4226;-1.9764;-7.9300;
3101197380350212;50.3128;-1.7690;-7.8080;
3101197390350212;50.3372;-1.5982;-7.7348;
3101197400350212;50.3372;-1.4396;-7.6494;
3101197410350212;50.2762;-1.2810;-7.6738;
3101197420350212;50.0932;-1.1346;-7.3688;
3101197430350212;49.9102;-0.9760;-7.1614;
3101197440350212;49.6906;-0.9028;-7.0028;
3101197450350212;49.5564;-0.7442;-6.6734;
3101197460350212;49.4100;-0.6344;-6.4294;
3101197470350212;49.2392;-0.5734;-6.2586;
3101197480350212;49.2758;-0.4392;-6.2586;
3101197490350212;49.4344;-0.4026;-6.3196;
3101197500350212;49.7516;-0.3416;-6.7588;
3101197510350212;50.0322;-0.3538;-7.0150;
3101197520350212;50.2274;-0.3416;-7.1858;
3101197530350212;50.1908;-0.3660;-7.1858;
3101197540350212;50.2640;-0.3782;-7.3200;
3101197550350212;50.1908;-0.4758;-7.3078;
3101197560350212;50.1054;-0.5856;-7.1858;
3101197570350212;49.8248;-0.6344;-6.9540;
3101197580350212;49.5442;-0.7076;-6.6246;
3101197590350212;49.1782;-0.7930;-6.4172;
3101197600350212;48.8976;-0.8540;-6.1610;
3101197610350212;48.7634;-0.8906;-5.9902;
3101197620350212;48.6902;-0.9150;-5.8926;
3101197630350212;48.6780;-0.8784;-5.7706;
3101197640350212;48.7146;-0.8906;-5.7096;
3101197650350212;48.7390;-0.8784;-5.6364;
3101197660350212;48.7146;-0.8540;-5.5510;
3101197670350212;48.7634;-0.7930;-5.5022;
3101197680350212;48.9464;-0.7564;-5.5998;
3101197690350212;49.1538;-0.7686;-5.7950;
3101197700350212;49.3368;-0.8052;-5.9536;
3101197710350212;49.6174;-0.8296;-6.1732;
3101197720350212;49.7760;-0.8174;-6.4050;
3101197730350212;49.8248;-0.8052;-6.5514;
3101197740350212;49.9590;-0.8174;-6.5270;
3101197750350212;50.2152;-0.8784;-6.6734;
3101197760350212;50.3006;-0.9760;-6.7710;
3101197770350212;50.2884;-0.9882;-6.7710;
3101197780350212;50.1908;-0.9882;-6.5514;
3101197790350212;50.1420;-0.9760;-6.5026;
3101197800350212;50.0932;-0.9882;-6.3928;
3101197810350212;50.1908;-1.0248;-6.3318;
3101197820350212;50.1908;-1.0736;-6.4538;
3101197830350212;50.0566;-1.0614;-6.4050;
3101197840350212;50.0444;-1.0004;-6.3196;
3101197850350212;49.9102;-0.9638;-6.2220;
3101197860350212;49.8370;-0.9638;-6.2098;
3101197870350212;49.6662;-0.9028;-5.9414;
3101197880350212;49.5930;-0.8662;-5.9292;
3101197890350212;49.4588;-0.8174;-5.9780;
3101197900350212;49.4832;-0.6344;-6.0024;
3101197910350212;49.4222;-0.4758;-5.8316;
3101197920350212;49.3490;-0.2806;-5.8072;
3101197930350212;49.3978;-0.0366;-5.7706;
3101197940350212;49.4588;0.2440;-5.8194;
3101197950350212;49.4710;0.5246;-5.9902;
3101197960350212;49.4710;0.8784;-5.8316;
3101197970350212;49.5320;1.2566;-5.7462;
3101197980350212;49.3490;1.5250;-5.5144;
3101197990350212;49.3002;1.8422;-5.5266;
3101198000350212;49.2514;2.1106;-5.4046;
3101198010350212;49.1782;2.3668;-5.3802;
3101198020350212;49.2514;2.6962;-5.4534;
3101198030350212;49.4588;2.9890;-5.6730;
3101198040350212;49.6418;3.2330;-6.0390;
3101198050350212;49.8004;3.4404;-6.2830;
3101198060350212;50.0444;3.7088;-6.6124;
3101198070350212;50.1786;3.9162;-6.7832;
3101198080350212;50.3006;4.1358;-7.0394;
3101198090350212;50.4226;4.2456;-7.2712;
3101198100350212;50.3860;4.3676;-7.3444;
3101198110350212;50.3128;4.5384;-7.2956;
3101198120350212;50.2152;4.6360;-7.2590;
3101198130350212;50.1054;4.7946;-7.0882;
3101198140350212;50.0200;4.8190;-7.0150;
3101198150350212;50.1176;4.9166;-7.1126;
3101198160350212;50.1298;4.9654;-7.1004;
3101198170350212;50.2152;5.0996;-7.1492;
3101198180350212;50.2762;5.1484;-7.1858;
3101198190350212;50.2884;5.1362;-7.2224;
3101198200350212;50.2274;5.1362;-7.1248;
3101198210350212;50.2152;5.1484;-7.1370;
3101198220350212;50.2274;5.2216;-7.1736;
3101198230350212;50.2030;5.2460;-7.1370;
3101198240350212;50.2030;5.2582;-7.2224;
3101198250350212;50.0688;5.2216;-7.0638;
3101198260350212;50.1176;5.2338;-7.0150;
3101198270350212;49.9956;5.1972;-6.7832;
3101198280350212;49.9956;5.2460;-6.6002;
3101198290350212;49.8980;5.2338;-6.4538;
3101198300350212;49.8248;5.2460;-6.2952;
3101198310350212;49.7882;5.2826;-6.1244;
3101198320350212;49.6174;5.3314;-5.7950;
3101198330350212;49.5198;5.3436;-5.5510;
3101198340350212;49.3734;5.4168;-5.3070;
3101198350350212;49.3002;5.5144;-5.1850;
3101198360350212;49.2758;5.5876;-5.1484;
3101198370350212;49.2148;5.6608;-5.0874;
3101198380350212;49.1294;5.7340;-4.8556;
3101198390350212;48.9586;5.8072;-4.5994;
3101198400350212;48.9220;5.8804;-4.5750;
3101198410350212;49.0196;6.0512;-4.5872;
3101198420350212;48.9220;6.1244;-4.5140;
3101198430350212;48.7878;6.2464;-4.4042;
3101198440350212;48.5682;6.3440;-4.1846;
3101198450350212;48.4706;6.4416;-4.0260;
3101198460350212;48.4218;6.5758;-3.9772;
3101198470350212;48.2754;6.6856;-3.9040;
3101198480350212;48.1534;6.8564;-3.7210;
3101198490350212;47.9460;7.0028;-3.5258;
3101198500350212;47.7630;7.1370;-3.3306;
3101198510350212;47.8240;7.2834;-3.3062;
3101198520350212;47.8606;7.4786;-3.3672;
3101198530350212;47.8484;7.7104;-3.4160;
3101198540350212;47.7874;7.8934;-3.4404;
3101198550350212;47.8240;8.1252;-3.5258;
3101198560350212;47.7508;8.2716;-3.5380;
3101198570350212;47.7142;8.4302;-3.5624;
3101198580350212;47.7142;8.6742;-3.6844;
3101198590350212;47.6898;8.8816;-3.7698;
3101198600350212;47.6898;9.0280;-3.8796;
3101198610350212;47.7508;9.1378;-3.9894;
3101198620350212;47.8240;9.2720;-4.3432;
3101198630350212;47.8606;9.2964;-4.5994;
3101198640350212;48.0558;9.4062;-4.9532;
3101198650350212;48.1046;9.5038;-5.3314;
3101198660350212;48.3364;9.5282;-5.6974;
3101198670350212;48.3730;9.5526;-5.9414;
3101198680350212;48.4462;9.5770;-6.1854;
3101198690350212;48.4950;9.6014;-6.4294;
3101198700350212;48.4584;9.6502;-6.3684;
3101198710350212;48.5316;9.6380;-6.5026;
3101198720350212;48.5560;9.5892;-6.6368;
3101198730350212;48.6536;9.4794;-6.7710;
3101198740350212;48.5316;9.3452;-6.7954;
3101198750350212;48.4828;9.1866;-6.8930;
3101198760350212;48.4462;8.9426;-6.9296;
3101198770350212;48.3852;8.6986;-6.9540;
3101198780350212;48.3730;8.4302;-6.9662;
3101198790350212;48.2998;8.1984;-6.9174;
3101198800350212;48.2754;7.9422;-6.8198;
3101198810350212;48.1412;7.6738;-6.5636;
3101198820350212;48.1168;7.4298;-6.4416;
3101198830350212;48.0436;7.1858;-6.2586;
3101198840350212;48.0192;6.9784;-6.1122;
3101198850350212;48.0070;6.8564;-5.9902;
3101198860350212;48.0436;6.6856;-5.9658;
3101198870350212;48.0924;6.5392;-6.0024;
3101198880350212;48.1900;6.4660;-6.0878;
3101198890350212;48.3120;6.3318;-6.2952;
3101198900350212;48.1534;6.2220;-6.1000;
3101198910350212;48.0924;6.1488;-5.9658;
3101198920350212;48.1046;6.1000;-5.9414;
3101198930350212;48.1778;6.0146;-5.9658;
3101198940350212;48.1168;5.9658;-5.8316;
3101198950350212;48.0924;5.9170;-5.6364;
3101198960350212;47.8728;5.8560;-5.3802;
3101198970350212;47.9216;5.8560;-5.3192;
3101198980350212;48.1046;5.8804;-5.4778;
3101198990350212;48.2388;5.8682;-5.6486;
3101199000350212;48.3242;5.8804;-5.6486;
3101199010350212;48.3974;5.8560;-5.7462;
3101199020350212;48.5438;5.7706;-5.9292;
3101199030350212;48.6414;5.7462;-6.0634;
3101199040350212;48.8366;5.6974;-6.2464;
3101199050350212;48.8366;5.6730;-6.2464;
3101199060350212;48.9952;5.5876;-6.3196;
3101199070350212;49.1904;5.5144;-6.5026;
3101199080350212;49.2758;5.4534;-6.6124;
3101199090350212;49.2880;5.4046;-6.5758;
3101199100350212;49.2514;5.3924;-6.5514;
3101199110350212;49.3978;5.3558;-6.6002;
3101199120350212;49.4588;5.3192;-6.6246;
3101199130350212;49.6052;5.3192;-6.6734;
3101199140350212;49.6662;5.3680;-6.7222;
3101199150350212;49.6662;5.3802;-6.6124;
3101199160350212;49.7394;5.4168;-6.5514;
3101199170350212;49.8370;5.4412;-6.5758;
3101199180350212;49.8736;5.5388;-6.4538;
3101199190350212;49.6784;5.5998;-6.1976;
3101199200350212;49.4710;5.6364;-5.8072;
3101199210350212;49.1660;5.6852;-5.3558;
3101199220350212;48.8488;5.6852;-4.9288;
3101199230350212;48.6292;5.7096;-4.6726;
3101199240350212;48.4340;5.7706;-4.4774;
3101199250350212;48.2998;5.8316;-4.2944;
3101199260350212;48.2876;5.8194;-4.2334;
3101199270350212;48.3242;5.8682;-4.3554;
3101199280350212;48.5438;5.9292;-4.6238;
3101199290350212;48.8366;5.9780;-4.9288;
3101199300350212;49.0684;6.0512;-5.2094;
3101199310350212;49.2270;6.0878;-5.3070;
3101199320350212;49.2514;6.0756;-5.2460;
3101199330350212;49.1050;6.0512;-5.0630;
3101199340350212;49.1050;6.0390;-4.9776;
3101199350350212;49.1172;6.0146;-4.8190;
3101199360350212;48.8854;5.9414;-4.4530;
3101199370350212;48.6902;5.8804;-4.2578;
3101199380350212;48.4828;5.8682;-3.9650;
3101199390350212;48.2998;5.8682;-3.7454;
3101199400350212;48.1534;5.9048;-3.5746;
3101199410350212;48.0924;5.8682;-3.4404;
3101199420350212;47.9094;5.8804;-3.2696;
3101199430350212;47.6288;5.8682;-2.9524;
3101199440350212;47.6166;5.9658;-2.9402;
3101199450350212;47.5190;6.0756;-2.8182;
3101199460350212;47.5678;6.0756;-2.8304;
3101199470350212;47.6410;6.1244;-2.9402;
3101199480350212;47.6898;6.1610;-3.0622;
3101199490350212;47.8118;6.2586;-3.1720;
3101199500350212;47.9704;6.4050;-3.3672;
3101199510350212;48.1900;6.5270;-3.6966;
3101199520350212;48.3120;6.5758;-3.9162;
3101199530350212;48.3364;6.6124;-3.9284;
3101199540350212;48.2632;6.6856;-3.8552;
3101199550350212;48.1900;6.7832;-3.8064;
3101199560350212;48.2144;6.8808;-3.7942;
3101199570350212;48.2388;6.9784;-3.8552;
3101199580350212;48.1412;7.0028;-3.7576;
3101199590350212;48.0680;7.0394;-3.6722;
3101199600350212;47.9338;7.1248;-3.5868;
3101199610350212;47.8972;7.2102;-3.6966;
3101199620350212;47.8240;7.3078;-3.7820;
3101199630350212;47.7996;7.3688;-3.7942;
3101199640350212;47.7264;7.3566;-3.8186;
3101199650350212;47.5312;7.4176;-3.7332;
3101199660350212;47.5434;7.5518;-3.8308;
3101199670350212;47.5434;7.6372;-3.8552;
3101199680350212;47.6288;7.7226;-3.8796;
3101199690350212;47.6776;7.7714;-3.8918;
3101199700350212;47.7508;7.8446;-3.9284;
3101199710350212;47.7752;7.9544;-3.8674;
3101199720350212;47.7752;8.0642;-3.8918;
3101199730350212;47.9216;8.1496;-3.9528;
3101199740350212;47.8606;8.1618;-3.8796;
3101199750350212;47.7752;8.1984;-3.8430;
3101199760350212;47.7020;8.2472;-3.8064;
3101199770350212;47.6898;8.2960;-3.7698;
3101199780350212;47.7386;8.4180;-3.7698;
3101199790350212;47.8606;8.4790;-4.0138;
3101199800350212;47.9582;8.5644;-4.1602;
3101199810350212;48.1290;8.6864;-4.4042;
3101199820350212;48.2632;8.7352;-4.5628;
3101199830350212;48.4218;8.8084;-4.7702;
3101199840350212;48.6048;8.8816;-4.9898;
3101199850350212;48.7268;8.9304;-5.1484;
3101199860350212;48.7390;8.8938;-5.1972;
3101199870350212;48.6658;8.8450;-5.1484;
3101199880350212;48.5316;8.8328;-4.9776;
3101199890350212;48.2632;8.7352;-4.6970;
3101199900350212;48.1168;8.6498;-4.5994;
3101199910350212;47.8850;8.6010;-4.4896;
3101199920350212;47.6410;8.5156;-4.4530;
3101199930350212;47.5678;8.4424;-4.4896;
3101199940350212;47.4824;8.3692;-4.6482;
3101199950350212;47.2628;8.3082;-4.6604;
3101199960350212;47.2750;8.2350;-4.7580;
3101199970350212;47.3116;8.1862;-5.0752;
3101199980350212;47.2384;8.1740;-5.1240;
3101199990350212;47.2384;8.0886;-5.0874;
3101200000350212;47.1530;8.0032;-5.0142;
3101200010350212;46.9578;7.9422;-4.8922;
3101200020350212;46.9090;7.8934;-4.8434;
3101200030350212;47.0310;7.8568;-4.7946;
3101200040350212;47.0310;7.8446;-4.7702;
3101200050350212;47.0676;7.7836;-4.6360;
3101200060350212;47.1530;7.7592;-4.6970;
3101200070350212;47.2628;7.7836;-4.7946;
3101200080350212;47.4702;7.8324;-4.8922;
3101200090350212;47.5922;7.8324;-4.8800;
3101200100350212;47.6410;7.8446;-4.8190;
3101200110350212;47.6898;7.8324;-4.8312;
3101200120350212;47.7020;7.7714;-4.8800;
3101200130350212;47.6532;7.8080;-4.8922;
3101200140350212;47.5922;7.7836;-4.8190;
3101200150350212;47.6166;7.7470;-4.9532;
3101200160350212;47.6898;7.7104;-5.1240;
3101200170350212;47.7752;7.6860;-5.3924;
3101200180350212;47.8118;7.7104;-5.5632;
3101200190350212;47.7142;7.6860;-5.6120;
3101200200350212;47.6898;7.7104;-5.6486;
3101200210350212;47.5922;7.6860;-5.6486;
3101200220350212;47.6776;7.7226;-5.9048;
3101200230350212;47.6288;7.7470;-5.9658;
3101200240350212;47.4214;7.7714;-5.7950;
3101200250350212;47.2750;7.7714;-5.6730;
3101200260350212;47.2628;7.7958;-5.6608;
3101200270350212;47.2506;7.8568;-5.6730;
3101200280350212;47.2750;7.9056;-5.7706;
3101200290350212;47.2872;7.9300;-5.7828;
3101200300350212;47.2262;8.0032;-5.7584;
3101200310350212;47.2140;8.0642;-5.7218;
3101200320350212;47.2506;8.0764;-5.8194;
3101200330350212;47.2750;8.1252;-5.9170;
3101200340350212;47.3116;8.0886;-6.0634;
3101200350350212;47.5068;8.1252;-6.3074;
3101200360350212;47.4824;8.1008;-6.3440;
3101200370350212;47.4580;8.1374;-6.4050;
3101200380350212;47.4214;8.1252;-6.3562;
3101200390350212;47.3116;8.0886;-6.2830;
3101200400350212;47.3482;8.0764;-6.2952;
3101200410350212;47.3482;8.0642;-6.3562;
3101200420350212;47.2750;8.0764;-6.2830;
3101200430350212;47.1164;8.0154;-6.1366;
3101200440350212;47.0798;7.8934;-6.1610;
3101200450350212;47.1530;7.7470;-6.2342;
3101200460350212;47.1286;7.6494;-6.2586;
3101200470350212;47.2506;7.5762;-6.4172;
3101200480350212;47.3482;7.5396;-6.6002;
3101200490350212;47.3604;7.4298;-6.6002;
3101200500350212;47.3604;7.2590;-6.5636;
3101200510350212;47.3482;7.1736;-6.5514;
3101200520350212;47.3482;7.1248;-6.4538;
3101200530350212;47.3970;7.1126;-6.4660;
3101200540350212;47.3604;6.9784;-6.4050;
3101200550350212;47.1530;6.8320;-6.1610;
3101200560350212;47.0066;6.6734;-5.9414;
3101200570350212;46.9456;6.5026;-5.7462;
3101200580350212;46.9822;6.4172;-5.7340;
3101200590350212;46.8968;6.2220;-5.5998;
3101200600350212;46.8358;6.0390;-5.5388;
3101200610350212;46.7748;5.8194;-5.5144;
3101200620350212;46.6894;5.6242;-5.5632;
3101200630350212;46.7260;5.4534;-5.5266;
3101200640350212;46.9578;5.2704;-5.7462;
3101200650350212;47.1286;5.1484;-6.0634;
3101200660350212;47.2384;4.9898;-6.1732;
3101200670350212;47.4824;4.8800;-6.5026;
3101200680350212;47.7264;4.7824;-6.6978;
3101200690350212;47.7874;4.6604;-6.6734;
3101200700350212;47.9216;4.5872;-6.6002;
3101200710350212;48.0802;4.4774;-6.6978;
3101200720350212;47.9582;4.3066;-6.5636;
3101200730350212;47.9216;4.2090;-6.3928;
3101200740350212;47.8728;4.1114;-6.3806;
3101200750350212;47.7386;4.0138;-6.1732;
3101200760350212;47.4824;3.9284;-5.9292;
3101200770350212;47.4458;3.8674;-5.9170;
3101200780350212;47.4580;3.7698;-5.8560;
3101200790350212;47.4458;3.7698;-5.8560;
3101200800350212;47.3482;3.7210;-5.7340;
3101200810350212;47.2384;3.6600;-5.6608;
3101200820350212;47.2872;3.6112;-5.6974;
3101200830350212;47.2994;3.5624;-5.7584;
3101200840350212;47.4824;3.4892;-5.9658;
3101200850350212;47.5556;3.4404;-6.0634;
3101200860350212;47.6654;3.4038;-6.2220;
3101200870350212;47.7264;3.3550;-6.3074;
3101200880350212;47.8362;3.3428;-6.4660;
3101200890350212;47.9460;3.3062;-6.6612;
3101200900350212;47.9460;3.3184;-6.6734;
3101200910350212;48.0314;3.2696;-6.6978;
3101200920350212;48.0070;3.2452;-6.7710;
3101200930350212;48.0314;3.2574;-6.7710;
3101200940350212;48.0436;3.2696;-6.8198;
3101200950350212;48.0924;3.2696;-6.9662;
3101200960350212;48.1778;3.2818;-6.9906;
3101200970350212;48.1778;3.2696;-7.0028;
3101200980350212;48.1290;3.2452;-6.9662;
3101200990350212;48.0436;3.1842;-6.9784;
3101201000350212;48.0314;3.2208;-6.9662;
3101201010350212;47.9826;3.1964;-7.0272;
3101201020350212;47.7996;3.1476;-6.8686;
3101201030350212;47.7142;3.0988;-6.8198;
3101201040350212;47.6532;3.0744;-6.8198;
3101201050350212;47.5922;3.0622;-6.7344;
3101201060350212;47.6410;3.0012;-6.8320;
3101201070350212;47.7752;3.0012;-7.0394;
3101201080350212;47.7508;2.9280;-7.0028;
3101201090350212;47.8240;2.8792;-7.1004;
3101201100350212;48.0192;2.8914;-7.3444;
3101201110350212;48.0192;2.8304;-7.4054;
3101201120350212;48.0558;2.7938;-7.5518;
3101201130350212;48.0802;2.7816;-7.6616;
3101201140350212;48.0558;2.7938;-7.6982;
3101201150350212;48.0070;2.7938;-7.6128;
3101201160350212;48.0436;2.7816;-7.7226;
3101201170350212;47.9948;2.7572;-7.7226;
3101201180350212;47.9582;2.7328;-7.7592;
3101201190350212;47.9948;2.6962;-7.8080;
3101201200350212;47.9704;2.6352;-7.8324;
3101201210350212;47.9948;2.5986;-7.9056;
3101201220350212;47.9826;2.5254;-7.9910;
3101201230350212;48.0070;2.4888;-8.1618;
3101201240350212;48.0558;2.4522;-8.2960;
3101201250350212;48.1778;2.4766;-8.5400;
3101201260350212;48.2388;2.5132;-8.6986;
3101201270350212;48.2754;2.5498;-8.7474;
3101201280350212;48.3364;2.6108;-8.8572;
3101201290350212;48.4462;2.6352;-8.9914;
3101201300350212;48.4950;2.6962;-9.1012;
3101201310350212;48.5560;2.7328;-9.2110;
3101201320350212;48.5682;2.8182;-9.2598;
3101201330350212;48.5560;2.8426;-9.2110;
3101201340350212;48.6658;2.8792;-9.3330;
3101201350350212;48.7268;2.9524;-9.4916;
3101201360350212;48.6902;3.0622;-9.4062;
3101201370350212;48.6048;3.1354;-9.4062;
3101201380350212;48.5682;3.2696;-9.2964;
3101201390350212;48.5926;3.4648;-9.2964;
3101201400350212;48.6780;3.6234;-9.4672;
3101201410350212;48.6902;3.8552;-9.5648;
3101201420350212;48.5316;3.9528;-9.4306;
3101201430350212;48.3730;4.1724;-9.3086;
3101201440350212;48.3364;4.3554;-9.2476;
3101201450350212;48.2022;4.5872;-9.2354;
3101201460350212;48.1168;4.7702;-9.2476;
3101201470350212;47.9582;4.9044;-9.1988;
3101201480350212;47.8728;5.1240;-9.1500;
3101201490350212;47.7630;5.2582;-9.0646;
3101201500350212;47.8484;5.5266;-9.2598;
3101201510350212;48.0192;5.7218;-9.5526;
3101201520350212;48.0314;5.8926;-9.8088;
3101201530350212;48.0680;6.1000;-9.8820;
3101201540350212;48.1046;6.3196;-10.0528;
3101201550350212;48.0802;6.5270;-10.1016;
3101201560350212;48.0436;6.6978;-10.0894;
3101201570350212;48.0436;6.9296;-10.3334;
3101201580350212;47.8728;7.1614;-10.2602;
3101201590350212;47.7508;7.3932;-10.2358;
3101201600350212;47.5678;7.6250;-10.1138;
3101201610350212;47.5922;7.8568;-10.1870;
3101201620350212;47.4702;8.0642;-10.1626;
3101201630350212;47.3848;8.2228;-10.3212;
3101201640350212;47.2750;8.4790;-10.3944;
3101201650350212;47.2140;8.6620;-10.3090;
3101201660350212;47.2750;8.8328;-10.3944;
3101201670350212;47.1774;9.0036;-10.2724;
3101201680350212;47.1164;9.1866;-10.3456;
3101201690350212;47.0798;9.3208;-10.4432;
3101201700350212;47.1408;9.4794;-10.6140;
3101201710350212;47.2750;9.7112;-10.5530;
3101201720350212;47.2750;9.8088;-10.5042;
3101201730350212;47.1774;9.9430;-10.4554;
3101201740350212;47.1286;10.0650;-10.3822;
3101201750350212;47.0798;10.1382;-10.3822;
3101201760350212;47.1652;10.2236;-10.5164;
3101201770350212;47.2262;10.3334;-10.5408;
3101201780350212;47.2750;10.4310;-10.5164;
3101201790350212;47.2140;10.4676;-10.5286;
3101201800350212;47.1652;10.5530;-10.4798;
3101201810350212;47.0676;10.6140;-10.3090;
3101201820350212;46.9090;10.6506;-10.2114;
3101201830350212;46.9212;10.7360;-10.1016;
3101201840350212;46.9090;10.7604;-9.9064;
3101201850350212;46.7748;10.7726;-9.7112;
3101201860350212;46.5430;10.8092;-9.3574;
3101201870350212;46.5430;10.8336;-9.2110;
3101201880350212;46.5430;10.8458;-9.1256;
3101201890350212;46.6528;10.8214;-9.1012;
3101201900350212;46.7260;10.8702;-8.9670;
3101201910350212;46.6040;10.9190;-8.8084;
3101201920350212;46.5186;10.9190;-8.6010;
3101201930350212;46.4088;10.9434;-8.3936;
3101201940350212;46.3722;10.8702;-8.3326;
3101201950350212;46.1282;10.8336;-7.9666;
3101201960350212;45.9208;10.7482;-7.6128;
3101201970350212;45.7256;10.7116;-7.3078;
3101201980350212;45.5670;10.6018;-7.0272;
3101201990350212;45.4816;10.4432;-6.9174;
3101202000350212;45.3474;10.2968;-6.7222;
3101202010350212;45.1766;10.1382;-6.4782;
3101202020350212;45.0912;9.9674;-6.3318;
3101202030350212;44.9570;9.8576;-6.0756;
3101202040350212;44.8106;9.6868;-5.8804;
3101202050350212;44.7008;9.4794;-5.7340;
3101202060350212;44.6398;9.2964;-5.6120;
3101202070350212;44.5178;9.0890;-5.3070;
3101202080350212;44.4934;8.9426;-5.1972;
3101202090350212;44.3958;8.7230;-4.8556;
3101202100350212;44.1762;8.4668;-4.5262;
3101202110350212;44.1762;8.2472;-4.4164;
3101202120350212;44.1396;7.9788;-4.2212;
3101202130350212;44.1396;7.7226;-4.0748;
3101202140350212;44.1884;7.4542;-4.0504;
3101202150350212;44.1762;7.1736;-4.0138;
3101202160350212;44.0908;6.8686;-3.6966;
3101202170350212;44.1152;6.6002;-3.7088;
3101202180350212;44.1762;6.3684;-3.5868;
3101202190350212;44.2128;6.0268;-3.5136;
3101202200350212;44.3470;5.7584;-3.6112;
3101202210350212;44.3836;5.5022;-3.6356;
3101202220350212;44.1884;5.2582;-3.3428;
3101202230350212;44.3104;5.0020;-3.3550;
3101202240350212;44.3958;4.6970;-3.4404;
3101202250350212;44.4568;4.4164;-3.4770;
3101202260350212;44.6154;4.1480;-3.5990;
3101202270350212;44.6886;3.8796;-3.6722;
3101202280350212;44.7862;3.6356;-3.7088;
3101202290350212;44.8228;3.3428;-3.6722;
3101202300350212;44.9814;3.0256;-3.8064;
3101202310350212;45.1522;2.7694;-3.9406;
3101202320350212;45.2498;2.5620;-4.0626;
3101202330350212;45.3474;2.2570;-4.1236;
3101202340350212;45.3840;1.9886;-4.1724;
3101202350350212;45.4084;1.8178;-4.2090;
3101202360350212;45.4206;1.5982;-4.1114;
3101202370350212;45.4694;1.3908;-4.1236;
3101202380350212;45.4572;1.1834;-4.0260;
3101202390350212;45.2498;0.9272;-3.7820;
3101202400350212;45.2132;0.7442;-3.6966;
3101202410350212;45.1034;0.5856;-3.5380;
3101202420350212;45.0424;0.4148;-3.5014;
3101202430350212;45.0424;0.2074;-3.4770;
3101202440350212;45.0058;0.0366;-3.5990;
3101202450350212;45.0058;-0.1220;-3.5868;
3101202460350212;45.1278;-0.2562;-3.7088;
3101202470350212;45.4084;-0.3660;-4.0260;
3101202480350212;45.5670;-0.4636;-4.2334;
3101202490350212;45.8110;-0.5978;-4.4164;
3101202500350212;45.9696;-0.7320;-4.5018;
3101202510350212;46.0916;-0.8296;-4.6116;
3101202520350212;46.1404;-1.0126;-4.6360;
3101202530350212;46.1892;-1.1712;-4.6848;
3101202540350212;46.2624;-1.3298;-4.7336;
3101202550350212;46.1404;-1.4884;-4.5506;
3101202560350212;46.0672;-1.6470;-4.3798;
3101202570350212;46.1160;-1.7934;-4.4164;
3101202580350212;46.0794;-1.9154;-4.3676;
3101202590350212;46.0916;-2.0740;-4.3310;
3101202600350212;46.1648;-2.1106;-4.3554;
3101202610350212;46.2136;-2.1960;-4.4896;
3101202620350212;46.1526;-2.3546;-4.5872;
3101202630350212;46.1282;-2.4888;-4.7702;
3101202640350212;46.1526;-2.6718;-4.9776;
3101202650350212;46.0794;-2.7694;-5.0386;
3101202660350212;46.2136;-2.8670;-5.1972;
3101202670350212;46.2136;-3.0012;-5.4290;
3101202680350212;46.1770;-3.1476;-5.5144;
3101202690350212;46.1404;-3.2574;-5.5510;
3101202700350212;46.2014;-3.3184;-5.5998;
3101202710350212;46.2746;-3.3794;-5.6730;
3101202720350212;46.2868;-3.4282;-5.7950;
3101202730350212;46.3478;-3.5136;-5.9658;
3101202740350212;46.3356;-3.5990;-6.1610;
3101202750350212;46.2868;-3.6234;-6.2098;
3101202760350212;46.3234;-3.6478;-6.4050;
3101202770350212;46.3356;-3.6478;-6.4904;
3101202780350212;46.3112;-3.6112;-6.7100;
3101202790350212;46.4332;-3.5990;-6.9418;
3101202800350212;46.4210;-3.5380;-6.9662;
3101202810350212;46.3966;-3.5014;-6.9906;
3101202820350212;46.3844;-3.4892;-7.1004;
3101202830350212;46.4210;-3.3794;-7.1370;
3101202840350212;46.4576;-3.2696;-7.1736;
3101202850350212;46.4576;-3.1964;-7.3200;
3101202860350212;46.5430;-3.0622;-7.4054;
3101202870350212;46.4942;-2.9646;-7.3810;
3101202880350212;46.4454;-2.7450;-7.3200;
3101202890350212;46.6040;-2.4888;-7.5884;
3101202900350212;46.7748;-2.2204;-7.7592;
3101202910350212;46.9456;-2.0252;-7.9788;
3101202920350212;47.0798;-1.8422;-8.1862;
3101202930350212;47.2506;-1.5616;-8.2228;
3101202940350212;47.4580;-1.2932;-8.3692;
3101202950350212;47.5312;-1.0004;-8.5034;
3101202960350212;47.7386;-0.7808;-8.7718;
3101202970350212;47.7386;-0.5978;-8.7474;
3101202980350212;47.7874;-0.3904;-8.7230;
3101202990350212;47.7996;-0.1342;-8.7352;
3101203000350212;47.8240;0.0976;-8.6742;
3101203010350212;47.9460;0.2806;-8.8084;
3101203020350212;47.7874;0.4514;-8.6864;
3101203030350212;47.8484;0.6710;-8.6132;
3101203040350212;47.9582;0.8784;-8.5156;
3101203050350212;48.0192;1.0614;-8.3814;
3101203060350212;48.0192;1.2810;-8.1496;
3101203070350212;48.0558;1.4762;-8.0398;
3101203080350212;48.1290;1.7202;-7.9178;
3101203090350212;48.0192;1.9276;-7.6372;
3101203100350212;48.1168;2.1106;-7.4786;
3101203110350212;48.1168;2.2692;-7.3200;
3101203120350212;47.9826;2.3912;-7.1126;
3101203130350212;47.9216;2.5864;-6.9906;
3101203140350212;47.8728;2.7328;-6.9052;
3101203150350212;47.8362;2.8914;-6.7344;
3101203160350212;47.7752;2.9646;-6.6368;
3101203170350212;47.6654;3.0256;-6.4172;
3101203180350212;47.4702;3.1354;-6.1122;
3101203190350212;47.3482;3.1598;-5.8438;
3101203200350212;47.2750;3.2696;-5.6364;
3101203210350212;47.1896;3.2208;-5.4412;
3101203220350212;47.0554;3.2208;-5.2338;
3101203230350212;46.9090;3.2208;-5.0386;
3101203240350212;46.8358;3.2086;-4.8312;
3101203250350212;46.7992;3.2330;-4.8190;
3101203260350212;46.8358;3.1964;-4.8068;
3101203270350212;46.7870;3.2330;-4.7824;
3101203280350212;46.8114;3.2086;-4.7458;
3101203290350212;46.7382;3.2330;-4.5750;
3101203300350212;46.6894;3.2208;-4.4774;
3101203310350212;46.7992;3.1476;-4.5628;
3101203320350212;46.7992;3.0622;-4.4896;
3101203330350212;46.7504;2.9646;-4.3432;
3101203340350212;46.5918;2.8792;-4.1114;
3101203350350212;46.5796;2.7816;-4.0382;
3101203360350212;46.6040;2.6840;-4.1480;
3101203370350212;46.6406;2.5742;-4.2456;
3101203380350212;46.6772;2.4278;-4.2334;
3101203390350212;46.5552;2.3058;-4.0992;
3101203400350212;46.5064;2.2692;-4.1114;
3101203410350212;46.5552;2.2448;-4.2212;
3101203420350212;46.6772;2.1838;-4.4408;
3101203430350212;46.7382;2.1228;-4.6116;
3101203440350212;46.6284;2.0374;-4.5262;
3101203450350212;46.5796;2.0374;-4.4530;
3101203460350212;46.5064;2.0496;-4.3676;
3101203470350212;46.4576;2.0252;-4.2578;
3101203480350212;46.2746;1.9764;-4.0748;
3101203490350212;46.2258;1.9276;-3.9406;
3101203500350212;46.2746;1.9032;-3.9894;
3101203510350212;46.1770;1.8300;-3.8064;
3101203520350212;46.2136;1.8056;-3.8430;
3101203530350212;46.3356;1.7812;-4.0504;
3101203540350212;46.4454;1.7080;-4.2334;
3101203550350212;46.4454;1.7080;-4.2700;
3101203560350212;46.5308;1.7568;-4.4652;
3101203570350212;46.4820;1.7446;-4.5506;
3101203580350212;46.4332;1.7690;-4.4408;
3101203590350212;46.5064;1.7568;-4.5750;
3101203600350212;46.5308;1.7446;-4.6116;
3101203610350212;46.4454;1.6714;-4.4652;
3101203620350212;46.3844;1.6592;-4.4286;
3101203630350212;46.4088;1.6104;-4.5140;
3101203640350212;46.5430;1.5128;-4.7214;
3101203650350212;46.6528;1.4396;-4.8800;
3101203660350212;46.6528;1.3420;-5.0874;
3101203670350212;46.4454;1.2566;-4.9654;
3101203680350212;46.2136;1.1590;-4.7214;
3101203690350212;46.1282;1.0736;-4.7702;
3101203700350212;45.9330;0.9272;-4.7702;
3101203710350212;45.8842;0.8418;-4.8556;
3101203720350212;45.7134;0.7076;-4.8800;
3101203730350212;45.7134;0.6100;-4.9410;
3101203740350212;45.6524;0.4270;-4.9166;
3101203750350212;45.5914;0.2562;-5.0264;
3101203760350212;45.6402;0.1586;-5.1850;
3101203770350212;45.5060;0.0000;-5.2216;
3101203780350212;45.3962;-0.0976;-5.1728;
3101203790350212;45.1766;-0.2562;-5.0020;
3101203800350212;45.0668;-0.4270;-4.8068;
3101203810350212;44.9448;-0.6344;-4.7702;
3101203820350212;44.9082;-0.6954;-4.9410;
3101203830350212;44.8472;-0.7686;-4.9410;
3101203840350212;44.7252;-0.9150;-5.0020;
3101203850350212;44.7008;-1.0126;-5.1728;
3101203860350212;44.8228;-1.1224;-5.5022;
3101203870350212;44.9814;-1.1956;-5.9902;
3101203880350212;45.0058;-1.2322;-6.3684;
3101203890350212;44.9692;-1.2810;-6.6612;
3101203900350212;44.9082;-1.3908;-6.9418;
3101203910350212;44.9692;-1.4396;-7.2712;
3101203920350212;44.9936;-1.4518;-7.6616;
3101203930350212;45.0424;-1.4396;-8.0642;
3101203940350212;45.0180;-1.4152;-8.3692;
3101203950350212;45.0302;-1.4274;-8.5766;
3101203960350212;45.1278;-1.3908;-8.9426;
3101203970350212;45.1888;-1.3176;-9.2476;
3101203980350212;45.2498;-1.1956;-9.4916;
3101203990350212;45.4816;-1.0614;-9.9796;
3101204000350212;45.7256;-0.9272;-10.3700;
3101204010350212;45.9330;-0.7930;-10.7360;
3101204020350212;46.1526;-0.6710;-11.0898;
3101204030350212;46.2502;-0.4636;-11.3338;
3101204040350212;46.3600;-0.2684;-11.4558;
3101204050350212;46.4088;-0.0366;-11.6754;
3101204060350212;46.4942;0.1830;-11.7242;
3101204070350212;46.5674;0.4026;-11.7730;
3101204080350212;46.6406;0.6710;-11.9560;
3101204090350212;46.7992;0.9394;-12.0902;
3101204100350212;46.9700;1.2566;-12.2854;
3101204110350212;47.1042;1.5860;-12.4318;
3101204120350212;47.2994;1.8544;-12.6514;
3101204130350212;47.5556;2.1350;-12.8832;
3101204140350212;47.8118;2.4034;-13.1760;
3101204150350212;47.9704;2.6718;-13.3712;
3101204160350212;48.1534;2.9524;-13.3834;
3101204170350212;48.1900;3.2208;-13.2492;
3101204180350212;48.2388;3.4404;-13.0906;
3101204190350212;48.3364;3.6356;-12.9930;
3101204200350212;48.3852;3.9162;-12.7490;
3101204210350212;48.4828;4.1114;-12.5782;
3101204220350212;48.6780;4.3432;-12.5782;
3101204230350212;48.8366;4.5628;-12.3952;
3101204240350212;48.9220;4.7458;-12.2976;
3101204250350212;49.1904;4.9654;-12.3098;
3101204260350212;49.4344;5.2094;-12.3220;
3101204270350212;49.8126;5.4046;-12.4196;
3101204280350212;50.1908;5.6608;-12.5782;
3101204290350212;50.4592;5.8926;-12.6392;
3101204300350212;50.6544;6.0634;-12.4318;
3101204310350212;50.8618;6.2708;-12.3708;
3101204320350212;51.1058;6.4172;-12.3586;
3101204330350212;51.2156;6.6246;-12.1878;
3101204340350212;51.3132;6.7710;-11.9926;
3101204350350212;51.2766;6.9540;-11.7242;
3101204360350212;51.1668;7.0150;-11.3094;
3101204370350212;51.0570;7.1126;-10.8214;
3101204380350212;50.8618;7.2590;-10.4310;
3101204390350212;50.7276;7.3322;-10.1016;
3101204400350212;50.5934;7.3932;-9.7722;
3101204410350212;50.4958;7.4176;-9.4916;
3101204420350212;50.4104;7.4664;-9.2232;
3101204430350212;50.3250;7.4786;-8.9060;
3101204440350212;50.1664;7.5518;-8.6010;
3101204450350212;50.0444;7.5640;-8.3448;
3101204460350212;49.9590;7.5518;-8.1130;
3101204470350212;49.9346;7.6006;-7.9788;
3101204480350212;49.8736;7.6250;-7.7470;
3101204490350212;49.7638;7.6982;-7.5152;
3101204500350212;49.6052;7.7470;-7.1980;
3101204510350212;49.5808;7.8202;-7.0516;
3101204520350212;49.5564;7.8568;-7.0272;
3101204530350212;49.5686;7.9300;-6.9418;
3101204540350212;49.5930;8.0398;-6.8076;
3101204550350212;49.4466;8.0764;-6.6734;
3101204560350212;49.3490;8.1740;-6.5148;
3101204570350212;49.2636;8.1862;-6.3928;
3101204580350212;49.1904;8.2838;-6.3562;
3101204590350212;49.0562;8.3936;-6.2220;
3101204600350212;49.0196;8.4912;-6.1366;
3101204610350212;48.9952;8.6620;-6.1610;
3101204620350212;48.9220;8.7352;-6.2586;
3101204630350212;48.9952;8.9060;-6.3928;
3101204640350212;49.0196;9.0524;-6.4538;
3101204650350212;49.0806;9.2476;-6.6612;
3101204660350212;49.2270;9.3940;-6.8198;
3101204670350212;49.3978;9.5526;-7.0638;
3101204680350212;49.5320;9.7234;-7.2712;
3101204690350212;49.6662;9.9186;-7.3566;
3101204700350212;49.8492;10.1016;-7.4786;
3101204710350212;49.9468;10.2724;-7.4298;
3101204720350212;50.0200;10.5408;-7.4420;
3101204730350212;50.0078;10.7360;-7.3932;
3101204740350212;49.6540;10.9312;-6.9296;
3101204750350212;49.4100;11.1020;-6.5880;
3101204760350212;49.1904;11.3094;-6.2464;
3101204770350212;48.8122;11.4436;-5.7828;
3101204780350212;48.3974;11.6510;-5.3558;
3101204790350212;48.0802;11.8096;-4.9044;
3101204800350212;47.6776;11.9194;-4.4286;
3101204810350212;47.4824;12.0292;-4.0504;
3101204820350212;47.5922;12.1512;-4.1236;
3101204830350212;47.3726;12.2244;-3.7698;
3101204840350212;47.2750;12.3098;-3.5136;
3101204850350212;47.3482;12.3830;-3.4282;
3101204860350212;47.4336;12.4074;-3.2452;
3101204870350212;47.4336;12.4196;-3.0134;
3101204880350212;47.6044;12.4074;-3.0012;
3101204890350212;47.6532;12.3708;-2.8182;
3101204900350212;47.6654;12.3220;-2.6596;
3101204910350212;47.7264;12.2732;-2.5010;
3101204920350212;47.6898;12.1512;-2.4278;
3101204930350212;47.6288;12.0292;-2.3668;
3101204940350212;47.6410;11.9072;-2.3302;
3101204950350212;47.5800;11.7608;-2.3180;
3101204960350212;47.5312;11.5412;-2.2082;
3101204970350212;47.4824;11.3216;-2.1594;
3101204980350212;47.3848;11.0776;-2.0374;
3101204990350212;47.2018;10.7482;-1.9032;
3101205000350212;47.0066;10.4554;-1.6348;
3101205010350212;46.8602;10.1260;-1.4396;
3101205020350212;46.5186;9.7112;-1.1590;
3101205030350212;46.3356;9.3330;-0.9760;
3101205040350212;46.1526;8.9182;-0.8906;
3101205050350212;45.9086;8.5156;-0.7686;
3101205060350212;45.7378;8.1374;-0.6466;
3101205070350212;45.7256;7.7958;-0.7076;
3101205080350212;45.6036;7.4542;-0.6466;
3101205090350212;45.4938;7.1126;-0.6344;
3101205100350212;45.5182;6.8076;-0.6710;
3101205110350212;45.4450;6.5026;-0.6710;
3101205120350212;45.2986;6.2098;-0.5734;
3101205130350212;45.2010;5.9780;-0.4880;
3101205140350212;45.0668;5.6364;-0.4880;
3101205150350212;44.8350;5.2948;-0.3172;
3101205160350212;44.7130;4.9898;-0.3294;
3101205170350212;44.4812;4.6604;-0.1342;
3101205180350212;44.2372;4.4042;-0.0122;
3101205190350212;44.0908;4.0992;0.0244;
3101205200350212;43.9932;3.7942;0.0488;
3101205210350212;43.8712;3.4892;0.0366;
3101205220350212;43.7370;3.2208;0.0732;
3101205230350212;43.8102;2.9890;-0.0976;
3101205240350212;43.9200;2.7084;-0.3782;
3101205250350212;44.0908;2.4522;-0.7686;
3101205260350212;44.3348;2.1960;-1.1956;
3101205270350212;44.4446;1.9154;-1.4762;
3101205280350212;44.4568;1.7812;-1.6592;
3101205290350212;44.5910;1.5982;-1.9520;
3101205300350212;44.8228;1.4274;-2.3058;
3101205310350212;44.9570;1.2932;-2.5376;
3101205320350212;45.0668;1.1468;-2.7694;
3101205330350212;45.2376;1.0370;-3.0378;
3101205340350212;45.4084;0.9638;-3.3672;
3101205350350212;45.6646;0.9028;-3.7820;
3101205360350212;45.9330;0.8052;-4.1724;
3101205370350212;46.0916;0.7076;-4.4530;
3101205380350212;46.2136;0.6588;-4.7092;
3101205390350212;46.2868;0.6222;-4.9654;
3101205400350212;46.2746;0.6344;-5.0752;
3101205410350212;46.4332;0.6100;-5.3558;
3101205420350212;46.5308;0.5856;-5.6242;
3101205430350212;46.4576;0.6222;-5.6120;
3101205440350212;46.5430;0.6710;-5.7828;
3101205450350212;46.5796;0.7320;-5.9658;
3101205460350212;46.7138;0.8052;-6.1366;
3101205470350212;46.9700;0.9150;-6.6002;
3101205480350212;47.2628;0.9882;-7.0760;
3101205490350212;47.3482;1.1224;-7.2590;
3101205500350212;47.3238;1.2688;-7.2102;
3101205510350212;47.5068;1.3908;-7.4176;
3101205520350212;47.4336;1.5128;-7.4786;
3101205530350212;47.4946;1.6836;-7.6616;
3101205540350212;47.5312;1.8422;-7.8690;
3101205550350212;47.3848;1.9642;-7.7226;
3101205560350212;47.2506;2.1350;-7.5640;
3101205570350212;47.1408;2.2814;-7.5518;
3101205580350212;47.1408;2.4766;-7.6494;
3101205590350212;47.2018;2.6474;-7.8568;
3101205600350212;47.3116;2.8060;-8.1252;
3101205610350212;47.3116;2.9524;-8.1008;
3101205620350212;47.2750;3.1476;-8.1618;
3101205630350212;47.2506;3.3062;-8.3204;
3101205640350212;47.3116;3.4648;-8.3936;
3101205650350212;47.3360;3.6234;-8.4912;
3101205660350212;47.3970;3.7576;-8.5522;
3101205670350212;47.3360;3.9284;-8.4790;
3101205680350212;47.3116;4.0992;-8.3936;
3101205690350212;47.3360;4.2822;-8.3448;
3101205700350212;47.2628;4.4164;-8.1008;
3101205710350212;47.3238;4.5506;-7.9910;
3101205720350212;47.2384;4.6604;-7.8568;
3101205730350212;47.2262;4.7946;-7.6982;
3101205740350212;47.2140;4.8312;-7.6128;
3101205750350212;47.1774;4.9044;-7.5762;
3101205760350212;47.1286;4.9044;-7.5152;
3101205770350212;47.0310;4.9166;-7.5274;
3101205780350212;47.0066;4.9532;-7.4908;
3101205790350212;47.0432;5.0142;-7.5640;
3101205800350212;47.2750;5.0264;-7.8202;
3101205810350212;47.3726;5.0630;-7.9544;
3101205820350212;47.3604;5.0752;-7.8934;
3101205830350212;47.4214;5.0630;-7.8812;
3101205840350212;47.6044;5.0630;-8.0276;
3101205850350212;47.7874;5.0752;-8.0642;
3101205860350212;47.8362;5.0508;-8.1252;
3101205870350212;47.7386;4.9532;-7.9300;
3101205880350212;47.5678;4.9410;-7.6738;
3101205890350212;47.5068;4.9166;-7.5518;
3101205900350212;47.4824;4.9288;-7.5396;
3101205910350212;47.4214;4.9410;-7.3566;
3101205920350212;47.2872;4.9410;-7.0760;
3101205930350212;47.1408;4.9166;-6.8686;
3101205940350212;47.2140;4.9288;-6.8198;
3101205950350212;47.2750;4.9654;-6.9174;
3101205960350212;47.3482;4.9654;-6.8930;
3101205970350212;47.3116;4.9288;-6.7344;
3101205980350212;47.3238;4.9654;-6.6124;
3101205990350212;47.2506;4.9898;-6.4416;
3101206000350212;47.2750;4.9898;-6.3318;
3101206010350212;47.3726;5.0264;-6.3684;
3101206020350212;47.4824;5.0264;-6.4538;
3101206030350212;47.5068;5.0142;-6.2464;
3101206040350212;47.6654;4.9898;-6.2708;
3101206050350212;47.7996;5.0142;-6.2952;
3101206060350212;47.8728;4.9288;-6.2464;
3101206070350212;48.0436;4.8190;-6.3806;
3101206080350212;48.1534;4.7580;-6.3684;
3101206090350212;48.2144;4.6360;-6.1610;
3101206100350212;48.1290;4.4896;-5.8926;
3101206110350212;48.2144;4.3432;-5.8926;
3101206120350212;48.0802;4.2090;-5.7218;
3101206130350212;47.9826;3.9284;-5.5388;
3101206140350212;47.9338;3.7332;-5.3802;
3101206150350212;47.8606;3.5258;-5.1484;
3101206160350212;47.7508;3.2696;-5.0020;
3101206170350212;47.6898;3.0012;-5.0386;
3101206180350212;47.5800;2.7328;-4.9288;
3101206190350212;47.4092;2.4766;-4.7214;
3101206200350212;47.2506;2.2326;-4.5262;
3101206210350212;47.1286;2.0618;-4.3310;
3101206220350212;47.0432;1.7934;-4.2700;
3101206230350212;47.0188;1.5250;-4.3188;
3101206240350212;46.9944;1.2932;-4.3188;
3101206250350212;47.0066;1.0980;-4.3310;
3101206260350212;46.9700;0.9150;-4.2822;
3101206270350212;47.0554;0.7442;-4.4652;
3101206280350212;47.1652;0.5490;-4.6604;
3101206290350212;47.2994;0.3416;-4.9532;
3101206300350212;47.3360;0.2074;-5.0630;
3101206310350212;47.3726;0.0854;-5.1606;
3101206320350212;47.4214;0.0000;-5.2826;
3101206330350212;47.4336;-0.0854;-5.2948;
3101206340350212;47.6898;-0.1342;-5.5754;
3101206350350212;47.7508;-0.2074;-5.7218;
3101206360350212;47.8240;-0.2562;-5.7584;
3101206370350212;47.9582;-0.2562;-5.8926;
3101206380350212;48.1412;-0.2562;-6.0146;
3101206390350212;48.2754;-0.2318;-6.0634;
3101206400350212;48.4340;-0.2684;-6.2342;
3101206410350212;48.5560;-0.2928;-6.4782;
3101206420350212;48.6048;-0.3660;-6.5392;
3101206430350212;48.6292;-0.3904;-6.4782;
3101206440350212;48.6414;-0.4392;-6.4294;
3101206450350212;48.5926;-0.5002;-6.2830;
3101206460350212;48.5194;-0.5612;-6.2952;
3101206470350212;48.3974;-0.6222;-6.2464;
3101206480350212;48.3120;-0.6954;-6.1122;
3101206490350212;48.2876;-0.7930;-5.9536;
3101206500350212;48.2388;-0.8174;-5.8682;
3101206510350212;48.2388;-0.9150;-5.8682;
3101206520350212;48.2388;-1.0126;-5.9536;
3101206530350212;48.1412;-1.1102;-5.8560;
3101206540350212;48.1168;-1.1834;-5.6974;
3101206550350212;48.1046;-1.2566;-5.6730;
3101206560350212;48.0436;-1.3176;-5.6852;
3101206570350212;47.9948;-1.4274;-5.6486;
3101206580350212;47.7996;-1.5494;-5.4046;
3101206590350212;47.6044;-1.6714;-5.1850;
3101206600350212;47.3848;-1.8178;-4.8800;
3101206610350212;47.3848;-1.9032;-4.9410;
3101206620350212;47.2262;-2.0740;-4.9044;
3101206630350212;47.3970;-2.2204;-5.2094;
3101206640350212;47.2018;-2.4400;-5.1362;
3101206650350212;47.0188;-2.6230;-5.0386;
3101206660350212;46.8968;-2.7938;-5.0630;
3101206670350212;46.8114;-2.9280;-5.0752;
3101206680350212;46.8846;-3.0500;-5.2460;
3101206690350212;46.7504;-3.2452;-5.2216;
3101206700350212;46.8724;-3.3672;-5.3802;
3101206710350212;46.6894;-3.5258;-5.1728;
3101206720350212;46.8602;-3.5624;-5.2948;
3101206730350212;46.9700;-3.5746;-5.4412;
3101206740350212;47.1408;-3.6356;-5.7218;
3101206750350212;47.2506;-3.7088;-5.8926;
3101206760350212;47.4092;-3.7332;-6.1122;
3101206770350212;47.6654;-3.7210;-6.3928;
3101206780350212;47.7752;-3.7088;-6.5148;
3101206790350212;47.8362;-3.6600;-6.6124;
3101206800350212;47.8728;-3.6356;-6.6612;
3101206810350212;47.8850;-3.5746;-6.6368;
3101206820350212;47.9704;-3.5258;-6.6246;
3101206830350212;48.1168;-3.4282;-6.7466;
3101206840350212;48.2144;-3.3428;-6.8076;
3101206850350212;48.2754;-3.3184;-6.8198;
3101206860350212;48.3730;-3.2574;-6.8198;
3101206870350212;48.4828;-3.2452;-6.8198;
3101206880350212;48.5804;-3.2086;-6.7466;
3101206890350212;48.8488;-3.1598;-6.9052;
3101206900350212;49.0196;-3.0988;-6.9906;
3101206910350212;49.1782;-3.0988;-7.0028;
3101206920350212;49.1538;-3.1110;-6.8808;
3101206930350212;49.1538;-3.0622;-6.7466;
3101206940350212;49.0562;-3.0866;-6.5392;
3101206950350212;48.9830;-3.0988;-6.3196;
3101206960350212;48.9830;-3.0622;-6.1732;
3101206970350212;48.8610;-3.0866;-5.9536;
3101206980350212;48.8122;-3.0988;-5.7950;
3101206990350212;48.8000;-3.0500;-5.6852;
3101207000350212;48.8976;-2.9646;-5.6974;
3101207010350212;48.9708;-2.8914;-5.6852;
3101207020350212;49.1172;-2.7938;-5.7706;
3101207030350212;49.2636;-2.6962;-5.9414;
3101207040350212;49.3490;-2.6352;-5.9536;
3101207050350212;49.4954;-2.5620;-6.0756;
3101207060350212;49.5442;-2.4766;-6.0390;
3101207070350212;49.5686;-2.3790;-5.9658;
3101207080350212;49.4832;-2.3302;-5.7950;
3101207090350212;49.4466;-2.2814;-5.5754;
3101207100350212;49.5198;-2.1716;-5.5510;
3101207110350212;49.5564;-2.0984;-5.4778;
3101207120350212;49.5564;-2.0008;-5.4046;
3101207130350212;49.5564;-1.9154;-5.3070;
3101207140350212;49.5808;-1.8300;-5.2216;
3101207150350212;49.5442;-1.7690;-5.1972;
3101207160350212;49.6540;-1.6958;-5.2216;
3101207170350212;49.7150;-1.5616;-5.3436;
3101207180350212;49.8614;-1.4640;-5.4778;
3101207190350212;49.9834;-1.3054;-5.4900;
3101207200350212;50.0810;-1.1834;-5.6364;
3101207210350212;50.1542;-1.0126;-5.6364;
3101207220350212;50.2152;-0.8662;-5.6974;
3101207230350212;50.2762;-0.6954;-5.7584;
3101207240350212;50.2762;-0.5124;-5.7340;
3101207250350212;50.1664;-0.4026;-5.6120;
3101207260350212;49.7882;-0.2318;-5.1484;
3101207270350212;49.3978;-0.1220;-4.6604;
3101207280350212;49.2514;0.0244;-4.4652;
3101207290350212;49.1416;0.1464;-4.3066;
3101207300350212;48.9708;0.2928;-4.0626;
3101207310350212;48.9220;0.4880;-3.9528;
3101207320350212;48.8610;0.6344;-3.9162;
3101207330350212;48.9952;0.8296;-4.0626;
3101207340350212;49.1782;0.9638;-4.3188;
3101207350350212;49.4588;1.1712;-4.7702;
3101207360350212;49.4954;1.3420;-4.8556;
3101207370350212;49.5076;1.5372;-4.9288;
3101207380350212;49.6296;1.7080;-5.1118;
3101207390350212;49.6296;1.8544;-5.0752;
3101207400350212;49.6784;2.0374;-5.0752;
3101207410350212;49.6296;2.1716;-5.0020;
3101207420350212;49.6052;2.3546;-5.0020;
3101207430350212;49.5686;2.4766;-4.9044;
3101207440350212;49.6662;2.6108;-5.0264;
3101207450350212;49.6418;2.7694;-5.0752;
3101207460350212;49.6296;2.9524;-5.0264;
3101207470350212;49.5320;3.0866;-4.9776;
3101207480350212;49.4100;3.2452;-4.8190;
3101207490350212;49.1904;3.4282;-4.5994;
3101207500350212;48.9830;3.5624;-4.3554;
3101207510350212;48.7390;3.7210;-4.1114;
3101207520350212;48.4828;3.8918;-3.8552;
3101207530350212;48.4096;3.9772;-3.7332;
3101207540350212;48.1656;4.1236;-3.4770;
3101207550350212;48.0436;4.2334;-3.3184;
3101207560350212;47.8728;4.3188;-3.2208;
3101207570350212;47.8606;4.4042;-3.2574;
3101207580350212;47.7996;4.4896;-3.1720;
3101207590350212;47.7386;4.5750;-3.1842;
3101207600350212;47.7386;4.6726;-3.2818;
3101207610350212;47.7142;4.7580;-3.3062;
3101207620350212;47.7142;4.7580;-3.5624;
3101207630350212;47.6410;4.8068;-3.6722;
3101207640350212;47.8118;4.9166;-3.9040;
3101207650350212;47.8118;4.9776;-4.0870;
3101207660350212;47.9216;5.0630;-4.3310;
3101207670350212;47.9826;5.1240;-4.5140;
3101207680350212;47.9338;5.1606;-4.5262;
3101207690350212;47.8606;5.2094;-4.5018;
3101207700350212;47.8606;5.2826;-4.4042;
3101207710350212;48.0070;5.3680;-4.5384;
3101207720350212;47.9582;5.3558;-4.5384;
3101207730350212;47.9948;5.3802;-4.4774;
3101207740350212;47.9582;5.4168;-4.4652;
3101207750350212;48.0070;5.4412;-4.4164;
3101207760350212;47.9094;5.4778;-4.2944;
3101207770350212;47.8606;5.5388;-4.2944;
3101207780350212;47.8972;5.5754;-4.3798;
3101207790350212;47.8728;5.6242;-4.3310;
3101207800350212;47.7874;5.7096;-4.2334;
3101207810350212;47.7996;5.7218;-4.2212;
3101207820350212;47.9094;5.6974;-4.3798;
3101207830350212;48.0680;5.6974;-4.6604;
3101207840350212;48.2998;5.7584;-4.9288;
3101207850350212;48.4340;5.7950;-5.1362;
3101207860350212;48.5316;5.8194;-5.2582;
3101207870350212;48.5316;5.8682;-5.3192;
3101207880350212;48.7024;5.8804;-5.5632;
3101207890350212;48.7756;5.9780;-5.6852;
3101207900350212;48.6902;6.0390;-5.5754;
3101207910350212;48.5682;6.1244;-5.3192;
3101207920350212;48.5438;6.1122;-5.1850;
3101207930350212;48.5926;6.1366;-5.1240;
3101207940350212;48.5804;6.1732;-5.0142;
3101207950350212;48.6902;6.2098;-5.0508;
3101207960350212;48.5926;6.2220;-4.8434;
3101207970350212;48.4828;6.1854;-4.6360;
3101207980350212;48.5682;6.2342;-4.6116;
3101207990350212;48.5804;6.2830;-4.6970;
3101208000350212;48.5316;6.3318;-4.7214;
3101208010350212;48.4584;6.3562;-4.6848;
3101208020350212;48.3242;6.4172;-4.6360;
3101208030350212;48.2632;6.4416;-4.6848;
3101208040350212;48.2510;6.4904;-4.7946;
3101208050350212;48.2754;6.5514;-4.8190;
3101208060350212;48.1900;6.5270;-4.8312;
3101208070350212;48.1412;6.4782;-4.8068;
3101208080350212;48.1168;6.4660;-4.6726;
3101208090350212;48.1168;6.5026;-4.6116;
3101208100350212;48.2022;6.4782;-4.5994;
3101208110350212;48.2144;6.4904;-4.4896;
3101208120350212;48.4218;6.5026;-4.6604;
3101208130350212;48.6170;6.5026;-4.8800;
3101208140350212;48.7512;6.5758;-4.9654;
3101208150350212;48.8732;6.6612;-5.0386;
3101208160350212;49.0196;6.7100;-5.2094;
3101208170350212;49.2636;6.6978;-5.5022;
3101208180350212;49.3368;6.7222;-5.6608;
3101208190350212;49.3246;6.6856;-5.7584;
3101208200350212;49.1538;6.6124;-5.6608;
3101208210350212;49.0562;6.5758;-5.5754;
3101208220350212;49.0318;6.5026;-5.5632;
3101208230350212;48.9830;6.4050;-5.5998;
3101208240350212;49.0074;6.2952;-5.6974;
3101208250350212;48.8976;6.1732;-5.6852;
3101208260350212;48.8366;6.0390;-5.7096;
3101208270350212;48.9952;5.9414;-5.8804;
3101208280350212;49.0562;5.8804;-5.8682;
3101208290350212;48.9952;5.7706;-5.8438;
3101208300350212;48.9586;5.6730;-5.8926;
3101208310350212;48.9220;5.5510;-5.8560;
3101208320350212;48.8000;5.4534;-5.7828;
3101208330350212;48.8122;5.4046;-5.7706;
3101208340350212;48.8610;5.2948;-5.8438;
3101208350350212;48.8244;5.1728;-5.8194;
3101208360350212;48.9342;5.0630;-6.0024;
3101208370350212;49.1050;4.9898;-6.2830;
3101208380350212;49.1782;4.8678;-6.3440;
3101208390350212;49.2636;4.7458;-6.2464;
3101208400350212;49.2880;4.6116;-6.1854;
3101208410350212;49.1660;4.4408;-5.8804;
3101208420350212;49.1538;4.3188;-5.6730;
3101208430350212;49.0196;4.2334;-5.3436;
3101208440350212;48.8976;4.0626;-5.0264;
3101208450350212;48.8244;3.9284;-4.7702;
3101208460350212;48.7878;3.7820;-4.5262;
3101208470350212;48.6780;3.6478;-4.5750;
3101208480350212;48.6170;3.5380;-4.4408;
3101208490350212;48.5560;3.4160;-4.4286;
3101208500350212;48.4828;3.2696;-4.5262;
3101208510350212;48.4950;3.0622;-4.7214;
3101208520350212;48.3364;2.9890;-4.7092;
3101208530350212;48.2754;2.8182;-4.8068;
3101208540350212;48.3730;2.6596;-5.1240;
3101208550350212;48.4706;2.5498;-5.2948;
3101208560350212;48.5194;2.3790;-5.4656;
3101208570350212;48.5072;2.1716;-5.5022;
3101208580350212;48.4340;2.0496;-5.4778;
3101208590350212;48.4462;1.9642;-5.4290;
3101208600350212;48.4584;1.8300;-5.5022;
3101208610350212;48.3974;1.7324;-5.4900;
3101208620350212;48.2632;1.6714;-5.4046;
3101208630350212;48.1534;1.5738;-5.3558;
3101208640350212;48.1412;1.5128;-5.4412;
3101208650350212;48.2754;1.5616;-5.7584;
3101208660350212;48.4218;1.5372;-6.0390;
3101208670350212;48.5316;1.5372;-6.3196;
3101208680350212;48.7024;1.5372;-6.5392;
3101208690350212;48.9220;1.6104;-6.8320;
3101208700350212;49.0196;1.6714;-7.0272;
3101208710350212;49.1660;1.7324;-7.2712;
3101208720350212;49.3368;1.7690;-7.4908;
3101208730350212;49.4588;1.7934;-7.6616;
3101208740350212;49.6418;1.8422;-7.7348;
3101208750350212;49.7272;1.9398;-7.9300;
3101208760350212;49.7150;2.0740;-7.9666;
3101208770350212;49.6540;2.1594;-7.9056;
3101208780350212;49.6296;2.2326;-7.9544;
3101208790350212;49.6906;2.3180;-7.9666;
3101208800350212;49.6906;2.5010;-8.0154;
3101208810350212;49.7028;2.6474;-8.1252;
3101208820350212;49.7150;2.7938;-8.3204;
3101208830350212;49.8614;2.9402;-8.5156;
3101208840350212;49.9346;3.0134;-8.7230;
3101208850350212;50.0322;3.1476;-8.8694;
3101208860350212;50.2762;3.3062;-9.0646;
3101208870350212;50.3494;3.3916;-9.1622;
3101208880350212;50.4592;3.5136;-9.2598;
3101208890350212;50.5568;3.5868;-9.1988;
3101208900350212;50.7032;3.7210;-9.2476;
3101208910350212;50.7276;3.8186;-9.2110;
3101208920350212;50.9594;3.9284;-9.3574;
3101208930350212;51.1790;4.0870;-9.5160;
3101208940350212;51.1790;4.1724;-9.6380;
3101208950350212;51.1302;4.3188;-9.6014;
3101208960350212;51.0936;4.3798;-9.4306;
3101208970350212;51.0570;4.5140;-9.4062;
3101208980350212;50.9228;4.5750;-9.1988;
3101208990350212;50.7154;4.6116;-8.9060;
3101209000350212;50.5812;4.6482;-8.6620;
3101209010350212;50.3494;4.5750;-8.3204;
3101209020350212;50.3006;4.5750;-8.0032;
3101209030350212;50.3982;4.5506;-7.9178;
3101209040350212;50.3250;4.5384;-7.8934;
3101209050350212;50.3860;4.4774;-7.9056;
3101209060350212;50.3494;4.4286;-7.7470;
3101209070350212;50.4592;4.3798;-7.7592;
3101209080350212;50.5324;4.3188;-7.7104;
3101209090350212;50.5934;4.2944;-7.6494;
3101209100350212;50.5446;4.2090;-7.5518;
3101209110350212;50.4836;4.1114;-7.3688;
3101209120350212;50.5568;4.0138;-7.2712;
3101209130350212;50.4836;3.8796;-6.9418;
3101209140350212;50.6178;3.7820;-6.9052;
3101209150350212;50.6544;3.6844;-6.7466;
3101209160350212;50.5324;3.5868;-6.5026;
3101209170350212;50.5324;3.4892;-6.4172;
3101209180350212;50.4958;3.4160;-6.2220;
3101209190350212;50.4836;3.3184;-5.9902;
3101209200350212;50.4104;3.2208;-5.7950;
3101209210350212;50.5568;3.1598;-5.8926;
3101209220350212;50.3616;3.0866;-5.6120;
3101209230350212;50.3006;3.0012;-5.4778;
3101209240350212;50.2396;2.8548;-5.2582;
3101209250350212;50.2152;2.7450;-5.1240;
3101209260350212;50.1298;2.5864;-4.9166;
3101209270350212;50.0688;2.5132;-4.9288;
3101209280350212;50.1420;2.4156;-4.9532;
3101209290350212;49.9468;2.2326;-4.7580;
3101209300350212;50.0688;2.1350;-4.8556;
3101209310350212;50.0932;1.9764;-4.7336;
3101209320350212;50.2884;1.9276;-4.9044;
3101209330350212;50.3372;1.8544;-4.9410;
3101209340350212;50.4592;1.7812;-5.0996;
3101209350350212;50.5568;1.7324;-5.1240;
3101209360350212;50.6422;1.6592;-5.1240;
3101209370350212;50.7764;1.6348;-5.1972;
3101209380350212;50.7886;1.5616;-5.1606;
3101209390350212;50.8618;1.5494;-5.2948;
3101209400350212;50.8130;1.5250;-5.3192;
3101209410350212;50.8618;1.4152;-5.3558;
3101209420350212;50.8374;1.4030;-5.3070;
3101209430350212;50.8130;1.3298;-5.3558;
3101209440350212;50.6910;1.3054;-5.1850;
3101209450350212;50.5690;1.3786;-5.0752;
3101209460350212;50.6178;1.3054;-5.0386;
3101209470350212;50.4836;1.2444;-4.8800;
3101209480350212;50.4470;1.2444;-4.7824;
3101209490350212;50.3616;1.2566;-4.7092;
3101209500350212;50.4104;1.2810;-4.7580;
3101209510350212;50.5080;1.3176;-4.8068;
3101209520350212;50.5812;1.2810;-5.0020;
3101209530350212;50.5446;1.1956;-4.9776;
3101209540350212;50.4348;1.2444;-4.9532;
3101209550350212;50.4714;1.2932;-5.0752;
3101209560350212;50.3616;1.2810;-5.0386;
3101209570350212;50.2884;1.3054;-4.9288;
3101209580350212;50.1542;1.2932;-4.8068;
3101209590350212;49.9956;1.2566;-4.6970;
3101209600350212;49.9346;1.2932;-4.5994;
3101209610350212;49.8248;1.3420;-4.5384;
3101209620350212;49.7638;1.3420;-4.5994;
3101209630350212;49.5930;1.3420;-4.5140;
3101209640350212;49.5442;1.3176;-4.5628;
3101209650350212;49.4954;1.3054;-4.6116;
3101209660350212;49.4588;1.2932;-4.5262;
3101209670350212;49.3856;1.2810;-4.4042;
3101209680350212;49.3002;1.2810;-4.4042;
3101209690350212;49.3246;1.2566;-4.3676;
3101209700350212;49.2880;1.2688;-4.2578;
3101209710350212;49.3490;1.2810;-4.2090;
3101209720350212;49.4588;1.2932;-4.2456;
3101209730350212;49.6662;1.2932;-4.4286;
3101209740350212;49.7150;1.2810;-4.6116;
3101209750350212;49.8736;1.2810;-4.9288;
3101209760350212;50.0078;1.3054;-5.1240;
3101209770350212;50.0444;1.2932;-5.3680;
3101209780350212;50.1542;1.3298;-5.6486;
3101209790350212;50.0444;1.3176;-5.6852;
3101209800350212;49.8858;1.3542;-5.5998;
3101209810350212;49.6540;1.3420;-5.5022;
3101209820350212;49.5930;1.3664;-5.5022;
3101209830350212;49.4954;1.3786;-5.4534;
3101209840350212;49.4222;1.3542;-5.4046;
3101209850350212;49.3856;1.3908;-5.3070;
3101209860350212;49.3490;1.3664;-5.1850;
3101209870350212;49.5564;1.3542;-5.3802;
3101209880350212;49.7882;1.3298;-5.6120;
3101209890350212;49.9468;1.3542;-5.5876;
3101209900350212;50.0688;1.4030;-5.5998;
3101209910350212;50.1298;1.3786;-5.5388;
3101209920350212;50.1298;1.4030;-5.5022;
3101209930350212;50.2274;1.4030;-5.5388;
3101209940350212;50.2396;1.4152;-5.5022;
3101209950350212;50.2518;1.4274;-5.4412;
3101209960350212;50.2762;1.4762;-5.3802;
3101209970350212;50.2762;1.4762;-5.4656;
3101209980350212;50.2518;1.4152;-5.3802;
3101209990350212;50.2030;1.4274;-5.2826;
3101210000350212;50.2396;1.3542;-5.2338;
3101210010350212;50.1908;1.2566;-5.1606;
3101210020350212;50.0932;1.1834;-4.9776;
3101210030350212;49.9224;1.1102;-4.8068;
3101210040350212;49.7882;1.0126;-4.6116;
3101210050350212;49.7272;0.9638;-4.4774;
3101210060350212;49.6540;0.8906;-4.4896;
3101210070350212;49.6052;0.8662;-4.4530;
3101210080350212;49.5198;0.8540;-4.3676;
3101210090350212;49.5076;0.8662;-4.4164;
3101210100350212;49.5320;0.8784;-4.5506;
3101210110350212;49.6174;0.8784;-4.6970;
3101210120350212;49.5442;0.8784;-4.6848;
3101210130350212;49.4954;0.8906;-4.6848;
3101210140350212;49.3978;0.9394;-4.5872;
3101210150350212;49.2758;0.9394;-4.4774;
3101210160350212;49.2270;0.9638;-4.4652;
3101210170350212;49.0684;1.0004;-4.2822;
3101210180350212;48.8854;1.0492;-4.1602;
3101210190350212;48.6902;1.0858;-3.9772;
3101210200350212;48.5682;1.1712;-3.9528;
3101210210350212;48.4584;1.1834;-3.9162;
3101210220350212;48.4706;1.2322;-4.0626;
3101210230350212;48.5072;1.3176;-4.2456;
3101210240350212;48.5560;1.3420;-4.4286;
3101210250350212;48.6780;1.4030;-4.6726;
3101210260350212;48.8976;1.3908;-4.9532;
3101210270350212;49.0318;1.4152;-5.1728;
3101210280350212;49.1050;1.4396;-5.4046;
3101210290350212;49.1782;1.4030;-5.5510;
3101210300350212;49.3124;1.4518;-5.7462;
3101210310350212;49.4344;1.4396;-5.9170;
3101210320350212;49.4466;1.4518;-6.0268;
3101210330350212;49.5076;1.4274;-6.2220;
3101210340350212;49.4832;1.3786;-6.3806;
3101210350350212;49.5076;1.3908;-6.4904;
3101210360350212;49.5808;1.3786;-6.6002;
3101210370350212;49.6174;1.3542;-6.7466;
3101210380350212;49.5808;1.3054;-6.7588;
3101210390350212;49.5442;1.2444;-6.8564;
3101210400350212;49.4100;1.1712;-6.7832;
3101210410350212;49.1660;1.1224;-6.6002;
3101210420350212;48.8366;1.0858;-6.3074;
3101210430350212;48.5926;1.0248;-6.1244;
3101210440350212;48.4340;0.9028;-6.0634;
3101210450350212;48.2022;0.8418;-5.9414;
3101210460350212;47.9460;0.7564;-5.7462;
3101210470350212;47.6654;0.7198;-5.5876;
3101210480350212;47.5312;0.7564;-5.5754;
3101210490350212;47.4336;0.6710;-5.5754;
3101210500350212;47.4336;0.6954;-5.6120;
3101210510350212;47.4824;0.7076;-5.8194;
3101210520350212;47.5068;0.7564;-5.9536;
3101210530350212;47.5922;0.8540;-6.1366;
3101210540350212;47.7508;0.8906;-6.4294;
3101210550350212;47.8606;0.9882;-6.5636;
3101210560350212;47.9460;1.0492;-6.6612;
3101210570350212;48.1534;1.1712;-6.9540;
3101210580350212;48.3608;1.2688;-7.1980;
3101210590350212;48.5316;1.3908;-7.3810;
3101210600350212;48.7756;1.5616;-7.6982;
3101210610350212;48.9220;1.7202;-7.9666;
3101210620350212;48.9830;1.9032;-8.2106;
3101210630350212;49.0440;2.0618;-8.4302;
3101210640350212;49.0562;2.2814;-8.4912;
3101210650350212;49.0440;2.5254;-8.5156;
3101210660350212;49.1294;2.7450;-8.6620;
3101210670350212;49.0562;2.9402;-8.7108;
3101210680350212;49.1538;3.1476;-8.7840;
3101210690350212;49.3124;3.3672;-8.8694;
3101210700350212;49.3490;3.5868;-8.7596;
3101210710350212;49.4344;3.7454;-8.6376;
3101210720350212;49.5564;3.9284;-8.7962;
3101210730350212;49.6662;4.1602;-8.8572;
3101210740350212;49.6540;4.3676;-8.8450;
3101210750350212;49.6662;4.5750;-8.7718;
3101210760350212;49.4588;4.7702;-8.4302;
3101210770350212;49.2514;4.9410;-8.0398;
3101210780350212;49.2514;5.1118;-7.8690;
3101210790350212;49.4100;5.3314;-7.9056;
3101210800350212;49.4832;5.5144;-7.7592;
3101210810350212;49.5808;5.6242;-7.6372;
3101210820350212;49.7272;5.7706;-7.6250;
3101210830350212;49.8126;5.8682;-7.4420;
3101210840350212;49.8248;5.9414;-7.2468;
3101210850350212;49.8858;6.0634;-7.1614;
3101210860350212;49.8492;6.0512;-6.8808;
3101210870350212;49.6418;5.9902;-6.4904;
3101210880350212;49.3856;5.9658;-6.1366;
3101210890350212;49.1416;5.9414;-5.6608;
3101210900350212;48.8488;5.8682;-5.1728;
3101210910350212;48.5804;5.7096;-4.6604;
3101210920350212;48.3486;5.5510;-4.2456;
3101210930350212;48.1168;5.2826;-3.8186;
3101210940350212;47.9460;5.0752;-3.5014;
3101210950350212;47.7264;4.8922;-3.1720;
3101210960350212;47.5800;4.5994;-2.7328;
3101210970350212;47.4336;4.3066;-2.3424;
3101210980350212;47.3116;4.0260;-2.0130;
3101210990350212;47.2872;3.7332;-1.9154;
3101211000350212;47.1774;3.4892;-1.7080;
3101211010350212;47.1652;3.1964;-1.5982;
3101211020350212;46.9944;2.8670;-1.4396;
3101211030350212;46.8724;2.5376;-1.1956;
3101211040350212;46.8602;2.1350;-1.1834;
3101211050350212;46.8358;1.7690;-1.2566;
3101211060350212;46.6894;1.3664;-1.0858;
3101211070350212;46.5918;0.9394;-1.0126;
3101211080350212;46.5674;0.5124;-1.0370;
3101211090350212;46.4454;0.1220;-0.9760;
3101211100350212;46.4088;-0.1586;-0.8784;
3101211110350212;46.3722;-0.5368;-1.0004;
3101211120350212;46.3478;-0.8418;-1.0736;
3101211130350212;46.3356;-1.1102;-1.2322;
3101211140350212;46.5918;-1.3908;-1.6714;
3101211150350212;46.7992;-1.5860;-1.9764;
3101211160350212;47.0310;-1.8422;-2.3790;
3101211170350212;47.1896;-2.1106;-2.7816;
3101211180350212;47.4702;-2.3180;-3.2818;
3101211190350212;47.7508;-2.5132;-3.7698;
3101211200350212;47.9338;-2.6474;-4.2090;
3101211210350212;48.0680;-2.7450;-4.5140;
3101211220350212;48.0436;-2.8548;-4.7092;
3101211230350212;48.0436;-2.9036;-4.8678;
3101211240350212;48.0314;-2.8670;-5.0020;
3101211250350212;48.1656;-2.8426;-5.1972;
3101211260350212;48.2388;-2.7816;-5.4534;
3101211270350212;48.2388;-2.6840;-5.5388;
3101211280350212;48.4096;-2.5620;-5.7828;
3101211290350212;48.5316;-2.4766;-6.0024;
3101211300350212;48.6048;-2.3058;-6.1976;
3101211310350212;48.8610;-2.1106;-6.5758;
3101211320350212;49.0440;-1.9154;-6.8564;
3101211330350212;49.1660;-1.6592;-7.0150;
3101211340350212;49.2880;-1.4152;-7.2102;
3101211350350212;49.4710;-1.1468;-7.5152;
3101211360350212;49.4832;-0.8418;-7.5640;
3101211370350212;49.4344;-0.5856;-7.5274;
3101211380350212;49.5442;-0.3416;-7.5884;
3101211390350212;49.3734;-0.1464;-7.3932;
3101211400350212;49.2636;0.1342;-7.2590;
3101211410350212;49.2026;0.4270;-7.2346;
3101211420350212;49.0928;0.6222;-7.0760;
3101211430350212;48.9586;0.8052;-6.7954;
3101211440350212;48.8366;1.0004;-6.5514;
3101211450350212;48.8122;1.2322;-6.3928;
3101211460350212;48.7024;1.4762;-6.1122;
3101211470350212;48.7268;1.6714;-6.1366;
3101211480350212;48.7756;1.8300;-6.1000;
3101211490350212;48.8976;2.0008;-6.0756;
3101211500350212;48.9708;2.1594;-6.0634;
3101211510350212;49.1172;2.3424;-6.1122;
3101211520350212;49.3246;2.5254;-6.3562;
3101211530350212;49.5686;2.7206;-6.6246;
3101211540350212;49.6906;2.8914;-6.7954;
3101211550350212;49.8126;3.0744;-6.8930;
3101211560350212;49.9956;3.2208;-7.0638;
3101211570350212;50.0444;3.3428;-7.1736;
3101211580350212;50.0810;3.4892;-7.2224;
3101211590350212;49.9712;3.6112;-7.0638;
3101211600350212;49.9346;3.7454;-6.9540;
3101211610350212;49.8004;3.8064;-6.7710;
3101211620350212;49.8004;3.8796;-6.8076;
3101211630350212;49.7394;3.9772;-6.8320;
3101211640350212;49.4954;4.0138;-6.6490;
3101211650350212;49.3124;4.0626;-6.4294;
3101211660350212;49.2514;4.0992;-6.3074;
3101211670350212;49.3246;4.1724;-6.5636;
3101211680350212;49.2514;4.2212;-6.5880;
3101211690350212;49.3490;4.2944;-6.7466;
3101211700350212;49.3124;4.3554;-6.8320;
3101211710350212;49.3612;4.3554;-6.7466;
3101211720350212;49.4832;4.4408;-6.7954;
3101211730350212;49.5076;4.5262;-7.0028;
3101211740350212;49.5564;4.5872;-7.1004;
3101211750350212;49.6052;4.7092;-7.1248;
3101211760350212;49.7150;4.7092;-7.2468;
3101211770350212;49.5808;4.6848;-7.1248;
3101211780350212;49.5930;4.6970;-7.1126;
3101211790350212;49.5076;4.7824;-7.1492;
3101211800350212;49.4100;4.8556;-7.1126;
3101211810350212;49.4100;4.9044;-7.1126;
3101211820350212;49.3856;4.9166;-7.1370;
3101211830350212;49.2758;4.9410;-7.1126;
3101211840350212;49.1538;4.9898;-7.0882;
3101211850350212;49.1294;5.0996;-7.1736;
3101211860350212;48.9952;5.1484;-7.0882;
3101211870350212;48.9220;5.1850;-7.0272;
3101211880350212;48.7634;5.1850;-6.9784;
3101211890350212;48.6536;5.1850;-6.8320;
3101211900350212;48.5438;5.2582;-6.8076;
3101211910350212;48.4096;5.2704;-6.7466;
3101211920350212;48.4218;5.2948;-6.7954;
3101211930350212;48.4706;5.3436;-6.8564;
3101211940350212;48.6048;5.3558;-7.0516;
3101211950350212;48.6414;5.3924;-7.1492;
3101211960350212;48.8244;5.4656;-7.3566;
3101211970350212;48.9464;5.5022;-7.5884;
3101211980350212;49.0196;5.5266;-7.6494;
3101211990350212;49.2026;5.5266;-7.8446;
3101212000350212;49.1660;5.5632;-7.8080;
3101212010350212;49.0928;5.5998;-7.7470;
3101212020350212;48.8854;5.6242;-7.5152;
3101212030350212;48.7512;5.6486;-7.3444;
3101212040350212;48.6780;5.6242;-7.2956;
3101212050350212;48.6414;5.6730;-7.2590;
3101212060350212;48.4340;5.6852;-7.0882;
3101212070350212;48.1900;5.6608;-6.8320;
3101212080350212;48.0314;5.6974;-6.5758;
3101212090350212;47.9948;5.7096;-6.5880;
3101212100350212;48.0802;5.7340;-6.7100;
3101212110350212;48.1412;5.7828;-6.8442;
3101212120350212;48.2022;5.8072;-6.9052;
3101212130350212;48.2510;5.8560;-6.9418;
3101212140350212;48.5438;5.9414;-7.2834;
3101212150350212;48.7390;6.0512;-7.5518;
3101212160350212;48.9952;6.1000;-7.9422;
3101212170350212;49.1294;6.1244;-8.1618;
3101212180350212;49.2514;6.1610;-8.3326;
3101212190350212;49.4954;6.2220;-8.5766;
3101212200350212;49.5686;6.3196;-8.7352;
3101212210350212;49.5076;6.3318;-8.7596;
3101212220350212;49.4100;6.3562;-8.7352;
3101212230350212;49.4222;6.4050;-8.7596;
3101212240350212;49.4100;6.4782;-8.7718;
3101212250350212;49.4344;6.5392;-8.8572;
3101212260350212;49.5198;6.6124;-8.9426;
3101212270350212;49.4954;6.6734;-8.9914;
3101212280350212;49.5686;6.7222;-9.1012;
3101212290350212;49.8370;6.8320;-9.3452;
3101212300350212;50.0078;6.8930;-9.5648;
3101212310350212;50.0200;6.9418;-9.5648;
3101212320350212;50.0078;6.9784;-9.5404;
3101212330350212;50.0810;7.0516;-9.5526;
3101212340350212;49.9712;7.1126;-9.5038;
3101212350350212;49.9224;7.1492;-9.4184;
3101212360350212;49.8736;7.1614;-9.2354;
3101212370350212;49.7028;7.2102;-9.1134;
3101212380350212;49.5808;7.2102;-8.9792;
3101212390350212;49.6174;7.2346;-9.0280;
3101212400350212;49.5808;7.2956;-9.0036;
3101212410350212;49.4466;7.2590;-8.7596;
3101212420350212;49.4344;7.2102;-8.6742;
3101212430350212;49.2514;7.1858;-8.5400;
3101212440350212;49.1538;7.1736;-8.3814;
3101212450350212;48.9586;7.1614;-8.1374;
3101212460350212;48.8488;7.1370;-7.8812;
3101212470350212;48.7268;7.1126;-7.6494;
3101212480350212;48.7634;7.0882;-7.6494;
3101212490350212;48.7756;7.0760;-7.6494;
3101212500350212;48.7024;7.1248;-7.5518;
3101212510350212;48.8122;7.0516;-7.4908;
3101212520350212;48.6902;6.9784;-7.3566;
3101212530350212;48.6658;6.9418;-7.1980;
3101212540350212;48.5316;6.8930;-7.0272;
3101212550350212;48.4096;6.8076;-6.8564;
3101212560350212;48.2144;6.7222;-6.5270;
3101212570350212;47.9704;6.5880;-6.1122;
3101212580350212;47.8240;6.4538;-5.8194;
3101212590350212;47.6288;6.3562;-5.5510;
3101212600350212;47.5434;6.2464;-5.4412;
3101212610350212;47.3726;6.0878;-5.2826;
3101212620350212;47.3238;5.9170;-5.2582;
3101212630350212;47.1774;5.7462;-5.1118;
3101212640350212;47.0432;5.5144;-4.8556;
3101212650350212;46.9700;5.4046;-4.7092;
3101212660350212;46.9822;5.2460;-4.6360;
3101212670350212;46.9822;5.0752;-4.5262;
3101212680350212;47.0554;4.9410;-4.4652;
3101212690350212;47.1896;4.7336;-4.4774;
3101212700350212;47.2994;4.6238;-4.4164;
3101212710350212;47.5190;4.4652;-4.4774;
3101212720350212;47.7142;4.3066;-4.6726;
3101212730350212;47.8972;4.1236;-4.9410;
3101212740350212;47.8484;3.8674;-4.7824;
3101212750350212;47.7874;3.6356;-4.6848;
3101212760350212;47.5800;3.4038;-4.5018;
3101212770350212;47.4946;3.2208;-4.3310;
3101212780350212;47.3726;3.0012;-4.1602;
3101212790350212;47.1896;2.7816;-4.0138;
3101212800350212;46.9944;2.5864;-3.8308;
3101212810350212;46.8358;2.3790;-3.6234;
3101212820350212;46.9334;2.1960;-3.8674;
3101212830350212;47.0310;2.0740;-4.0382;
3101212840350212;47.0920;1.8300;-4.1358;
3101212850350212;47.1774;1.6470;-4.3310;
3101212860350212;47.2262;1.4396;-4.5384;
3101212870350212;47.2872;1.2322;-4.7092;
3101212880350212;47.5068;1.0980;-4.9776;
3101212890350212;47.6654;0.9394;-5.2948;
3101212900350212;47.6532;0.7564;-5.3680;
3101212910350212;47.6898;0.5612;-5.5022;
3101212920350212;47.8118;0.4392;-5.6974;
3101212930350212;47.8118;0.2928;-5.7828;
3101212940350212;47.8118;0.1708;-5.7462;
3101212950350212;47.7264;0.0610;-5.6364;
3101212960350212;47.6532;-0.0854;-5.5266;
3101212970350212;47.5434;-0.2074;-5.4412;
3101212980350212;47.5678;-0.2928;-5.4778;
3101212990350212;47.6654;-0.3660;-5.6120;
3101213000350212;47.7386;-0.4270;-5.8072;
3101213010350212;47.8606;-0.4758;-5.9536;
3101213020350212;48.1168;-0.5490;-6.2586;
3101213030350212;48.2998;-0.5734;-6.5758;
3101213040350212;48.4218;-0.6466;-6.8198;
3101213050350212;48.5682;-0.6710;-6.9418;
3101213060350212;48.6048;-0.7198;-6.8930;
3101213070350212;48.6292;-0.7564;-6.9052;
3101213080350212;48.7146;-0.8296;-6.8930;
3101213090350212;48.7756;-0.8418;-6.8930;
3101213100350212;48.8244;-0.9150;-6.9174;
3101213110350212;49.0074;-0.9516;-7.0150;
3101213120350212;49.1172;-0.9028;-7.0028;
3101213130350212;49.2026;-0.9638;-7.0150;
3101213140350212;49.2392;-0.9760;-7.0516;
3101213150350212;49.2514;-0.9882;-6.9540;
3101213160350212;49.2148;-1.0004;-6.8076;
3101213170350212;49.3002;-1.0492;-6.7954;
3101213180350212;49.3002;-1.0126;-6.6734;
3101213190350212;49.3856;-0.9882;-6.6246;
3101213200350212;49.3856;-0.9882;-6.5880;
3101213210350212;49.4344;-0.9882;-6.5148;
3101213220350212;49.5442;-0.9760;-6.6124;
3101213230350212;49.5442;-0.9638;-6.5636;
3101213240350212;49.6540;-0.9516;-6.5026;
3101213250350212;49.5808;-0.9150;-6.4050;
3101213260350212;49.5442;-0.9760;-6.2708;
3101213270350212;49.3124;-1.0126;-5.9536;
3101213280350212;49.2636;-1.0492;-5.7950;
3101213290350212;49.2270;-1.0004;-5.6974;
3101213300350212;49.0928;-0.9516;-5.4412;
3101213310350212;49.0928;-0.9394;-5.4168;
3101213320350212;49.0440;-0.8784;-5.4046;
3101213330350212;48.9830;-0.8418;-5.3070;
3101213340350212;48.9708;-0.7320;-5.1972;
3101213350350212;48.9708;-0.5978;-5.1484;
3101213360350212;48.9586;-0.4514;-5.0874;
3101213370350212;49.0074;-0.3904;-5.0996;
3101213380350212;49.2880;-0.2806;-5.3436;
3101213390350212;49.4832;-0.1830;-5.4900;
3101213400350212;49.6052;-0.0366;-5.6730;
3101213410350212;49.8492;0.0976;-5.9048;
3101213420350212;50.0444;0.1952;-6.1854;
3101213430350212;50.3250;0.2928;-6.5392;
3101213440350212;50.5202;0.3050;-6.7222;
3101213450350212;50.5446;0.4514;-6.7710;
3101213460350212;50.4226;0.5368;-6.6368;
3101213470350212;50.3982;0.6466;-6.6490;
3101213480350212;50.3494;0.7198;-6.5514;
3101213490350212;50.2518;0.7808;-6.4782;
3101213500350212;50.0810;0.8296;-6.3440;
3101213510350212;49.9956;0.8906;-6.2342;
3101213520350212;49.8736;0.9638;-6.1732;
3101213530350212;49.7760;1.0370;-6.1244;
3101213540350212;49.7272;1.0614;-6.1366;
3101213550350212;49.6540;1.1346;-6.1122;
3101213560350212;49.5564;1.1712;-6.0512;
3101213570350212;49.4344;1.2810;-5.9292;
3101213580350212;49.3124;1.3786;-5.7828;
3101213590350212;49.1416;1.4274;-5.6364;
3101213600350212;48.9952;1.5250;-5.5510;
3101213610350212;48.9464;1.5250;-5.6608;
3101213620350212;48.9220;1.5616;-5.7706;
3101213630350212;49.0074;1.6470;-5.9902;
3101213640350212;49.0440;1.7446;-6.1366;
3101213650350212;49.1172;1.7446;-6.3196;
3101213660350212;49.2148;1.8544;-6.5514;
3101213670350212;49.3490;1.9154;-6.7832;
3101213680350212;49.4466;2.0252;-6.9418;
3101213690350212;49.6052;2.1960;-7.1370;
3101213700350212;49.6662;2.2814;-7.2224;
3101213710350212;49.5198;2.3546;-6.9906;
3101213720350212;49.5076;2.3912;-7.0272;
3101213730350212;49.4954;2.5254;-7.0760;
3101213740350212;49.3978;2.6230;-7.0394;
3101213750350212;49.3002;2.6962;-7.0394;
3101213760350212;49.2270;2.7572;-7.0394;
3101213770350212;49.0928;2.7694;-6.8686;
3101213780350212;48.8610;2.8426;-6.6490;
3101213790350212;48.7512;2.9158;-6.6124;
3101213800350212;48.6780;2.9158;-6.4660;
3101213810350212;48.6536;2.9646;-6.4050;
3101213820350212;48.7146;3.0134;-6.5148;
3101213830350212;48.7268;3.0744;-6.5392;
3101213840350212;48.8122;3.1598;-6.6856;
3101213850350212;48.8732;3.1964;-6.8442;
3101213860350212;48.9586;3.2818;-7.0272;
3101213870350212;48.9952;3.3306;-7.1614;
3101213880350212;48.9220;3.4282;-7.1614;
3101213890350212;48.8000;3.4892;-7.0394;
3101213900350212;48.7024;3.5624;-6.9174;
3101213910350212;48.6658;3.6112;-6.9052;
3101213920350212;48.4584;3.6478;-6.7222;
3101213930350212;48.3974;3.7210;-6.6490;
3101213940350212;48.3364;3.7942;-6.5636;
3101213950350212;48.2876;3.8430;-6.5270;
3101213960350212;48.3486;3.8918;-6.5392;
3101213970350212;48.4340;3.9162;-6.7954;
3101213980350212;48.5316;3.9650;-6.9662;
3101213990350212;48.5560;4.0138;-7.0394;
3101214000350212;48.7634;4.0870;-7.3444;
3101214010350212;48.9220;4.1602;-7.5762;
3101214020350212;48.9586;4.1846;-7.6250;
3101214030350212;49.0562;4.2578;-7.7714;
3101214040350212;49.0928;4.3066;-7.9300;
3101214050350212;49.1904;4.4042;-8.0276;
3101214060350212;49.2636;4.4286;-8.0886;
3101214070350212;49.2880;4.4896;-8.1496;
3101214080350212;49.2758;4.5384;-8.0886;
3101214090350212;49.2148;4.5628;-8.0764;
3101214100350212;49.3490;4.6360;-8.2960;
3101214110350212;49.2758;4.6970;-8.2838;
3101214120350212;49.1538;4.7214;-8.1496;
3101214130350212;48.9098;4.7580;-7.9422;
3101214140350212;48.7024;4.7702;-7.7348;
3101214150350212;48.5560;4.8190;-7.6006;
3101214160350212;48.4096;4.8434;-7.4786;
3101214170350212;48.2510;4.8312;-7.2834;
3101214180350212;48.1046;4.8190;-7.0760;
3101214190350212;48.0192;4.8068;-6.9662;
3101214200350212;48.0314;4.8922;-7.0638;
3101214210350212;48.0436;4.9166;-7.1248;
3101214220350212;48.0802;4.9532;-7.2346;
3101214230350212;47.9704;4.9776;-7.1980;
3101214240350212;47.8606;5.0020;-7.1004;
3101214250350212;47.7386;5.0874;-6.9906;
3101214260350212;47.7020;5.1606;-7.0028;
3101214270350212;47.6776;5.2338;-7.0150;
3101214280350212;47.6532;5.2460;-6.9906;
3101214290350212;47.6288;5.2338;-6.9540;
3101214300350212;47.4580;5.2826;-6.7710;
3101214310350212;47.4702;5.3070;-6.7588;
3101214320350212;47.4580;5.2582;-6.6978;
3101214330350212;47.3726;5.2704;-6.6978;
3101214340350212;47.3116;5.2216;-6.6978;
3101214350350212;47.1774;5.1972;-6.5636;
3101214360350212;47.0066;5.1850;-6.5026;
3101214370350212;46.8724;5.1484;-6.3806;
3101214380350212;46.9456;5.1484;-6.4904;
3101214390350212;46.9090;5.1118;-6.5270;
3101214400350212;46.8358;5.1484;-6.4904;
3101214410350212;46.8358;5.1118;-6.4904;
3101214420350212;46.6772;5.0630;-6.2952;
3101214430350212;46.6406;5.0630;-6.2830;
3101214440350212;46.6894;5.0386;-6.3440;
3101214450350212;46.7260;5.0508;-6.4538;
3101214460350212;46.7260;5.0142;-6.4294;
3101214470350212;46.8236;5.0020;-6.5026;
3101214480350212;46.8358;4.9776;-6.5880;
3101214490350212;46.9334;4.9654;-6.6490;
3101214500350212;47.0920;4.9898;-6.8808;
3101214510350212;47.1896;4.9776;-6.9784;
3101214520350212;47.2018;4.8800;-6.9540;
3101214530350212;47.1896;4.8556;-6.9052;
3101214540350212;47.2262;4.8068;-6.9418;
3101214550350212;47.1652;4.7336;-6.8930;
3101214560350212;47.2506;4.7092;-6.9174;
3101214570350212;47.1774;4.6970;-6.8564;
3101214580350212;46.9090;4.6604;-6.5148;
3101214590350212;46.5674;4.5384;-6.1366;
3101214600350212;46.3478;4.5628;-5.8560;
3101214610350212;46.0794;4.5140;-5.5266;
3101214620350212;45.7256;4.4286;-5.2216;
3101214630350212;45.4572;4.4042;-5.0386;
3101214640350212;45.2986;4.3554;-4.9898;
3101214650350212;45.2132;4.3310;-4.9166;
3101214660350212;45.2986;4.3188;-4.9898;
3101214670350212;45.6158;4.3798;-5.3680;
3101214680350212;45.7866;4.4042;-5.6364;
3101214690350212;46.0184;4.4652;-5.8926;
3101214700350212;46.3112;4.5750;-6.1732;
3101214710350212;46.5552;4.6604;-6.2952;
3101214720350212;46.7870;4.7336;-6.4660;
3101214730350212;46.9822;4.8190;-6.7466;
3101214740350212;47.2262;4.9166;-7.1248;
3101214750350212;47.3482;4.9776;-7.2956;
3101214760350212;47.4336;5.0386;-7.4176;
3101214770350212;47.5800;5.0874;-7.7226;
3101214780350212;47.5434;5.2094;-7.8202;
3101214790350212;47.4824;5.2582;-7.8812;
3101214800350212;47.3238;5.3558;-7.8324;
3101214810350212;47.2140;5.4290;-7.8202;
3101214820350212;47.2750;5.5510;-7.9056;
3101214830350212;47.3726;5.6730;-8.0764;
3101214840350212;47.5556;5.8072;-8.3204;
3101214850350212;47.6410;5.9536;-8.3936;
3101214860350212;47.6898;6.0756;-8.4790;
3101214870350212;47.8240;6.2220;-8.6620;
3101214880350212;47.8972;6.3562;-8.7840;
3101214890350212;48.0314;6.5270;-8.8450;
3101214900350212;47.9826;6.6490;-8.7840;
3101214910350212;47.8728;6.7954;-8.5766;
3101214920350212;47.7752;6.9174;-8.4424;
3101214930350212;47.6654;7.0394;-8.2350;
3101214940350212;47.5434;7.1004;-7.9178;
3101214950350212;47.4824;7.2468;-7.6860;
3101214960350212;47.3970;7.2956;-7.3932;
3101214970350212;47.2140;7.3322;-7.0638;
3101214980350212;47.0310;7.3566;-6.7832;
3101214990350212;46.8724;7.2956;-6.5148;
3101215000350212;46.7260;7.2956;-6.2708;
3101215010350212;46.4332;7.2346;-5.9780;
3101215020350212;46.3356;7.1736;-5.8194;
3101215030350212;46.2014;7.0760;-5.6486;
3101215040350212;46.1038;6.9296;-5.5388;
3101215050350212;46.1282;6.8198;-5.5754;
3101215060350212;46.0916;6.6734;-5.4168;
3101215070350212;46.0794;6.5148;-5.3558;
3101215080350212;46.0062;6.3440;-5.2460;
3101215090350212;46.1282;6.1122;-5.2582;
3101215100350212;46.1526;5.8438;-5.3070;
3101215110350212;46.1648;5.5754;-5.3314;
3101215120350212;46.1892;5.3680;-5.3192;
3101215130350212;46.1404;5.0874;-5.2582;
3101215140350212;46.1404;4.7824;-5.3314;
3101215150350212;46.1648;4.5140;-5.3558;
3101215160350212;46.1404;4.2578;-5.3192;
3101215170350212;46.1404;3.9772;-5.2826;
3101215180350212;46.1892;3.8186;-5.3314;
3101215190350212;46.2258;3.5380;-5.3436;
3101215200350212;46.2990;3.2330;-5.4656;
3101215210350212;46.3112;3.0012;-5.4656;
3101215220350212;46.3112;2.7694;-5.3802;
3101215230350212;46.2258;2.5742;-5.2948;
3101215240350212;46.1770;2.2570;-5.2826;
3101215250350212;46.1038;2.0130;-5.2460;
3101215260350212;46.0184;1.7690;-5.1362;
3101215270350212;45.9696;1.5372;-5.0630;
3101215280350212;45.7988;1.3420;-4.8434;
3101215290350212;45.6768;1.0858;-4.7092;
3101215300350212;45.6280;0.8418;-4.7946;
3101215310350212;45.6402;0.5856;-4.8312;
3101215320350212;45.5914;0.3538;-4.7580;
3101215330350212;45.5060;0.1464;-4.7336;
3101215340350212;45.4572;-0.1342;-4.6482;
3101215350350212;45.3840;-0.3416;-4.5872;
3101215360350212;45.4450;-0.5368;-4.5994;
3101215370350212;45.3474;-0.7686;-4.5140;
3101215380350212;45.1766;-0.9394;-4.2822;
3101215390350212;45.0790;-1.1224;-4.0992;
3101215400350212;45.1400;-1.2566;-4.0992;
3101215410350212;45.2742;-1.3664;-4.2090;
3101215420350212;45.4572;-1.4762;-4.5628;
3101215430350212;45.6280;-1.5616;-4.8556;
3101215440350212;45.7622;-1.6958;-5.1362;
3101215450350212;46.1160;-1.7812;-5.5266;
3101215460350212;46.3600;-1.8422;-5.8316;
3101215470350212;46.5064;-1.9642;-6.0756;
3101215480350212;46.6650;-2.0374;-6.3684;
3101215490350212;46.7016;-2.1350;-6.4050;
3101215500350212;46.5308;-2.1960;-6.2098;
3101215510350212;46.2990;-2.3180;-5.9658;
3101215520350212;46.2502;-2.3912;-5.9292;
3101215530350212;46.1770;-2.4400;-5.9414;
3101215540350212;46.2746;-2.5376;-6.0756;
3101215550350212;46.3600;-2.5864;-6.2708;
3101215560350212;46.3112;-2.6718;-6.2464;
3101215570350212;46.4088;-2.6840;-6.3806;
3101215580350212;46.6162;-2.7572;-6.6856;
3101215590350212;46.8724;-2.7328;-6.9418;
3101215600350212;46.9578;-2.7084;-7.0394;
3101215610350212;46.9456;-2.7328;-6.9784;
3101215620350212;46.8602;-2.6718;-6.9540;
3101215630350212;46.8846;-2.6108;-7.0272;
3101215640350212;46.9456;-2.5010;-7.1736;
3101215650350212;46.9944;-2.4522;-7.2956;
3101215660350212;47.0066;-2.4156;-7.1736;
3101215670350212;47.0676;-2.3668;-7.2102;
3101215680350212;47.1042;-2.3058;-7.1614;
3101215690350212;47.2506;-2.2326;-7.2956;
3101215700350212;47.3970;-2.1228;-7.3322;
3101215710350212;47.4336;-2.0618;-7.1980;
3101215720350212;47.5312;-2.0008;-7.0638;
3101215730350212;47.5678;-1.9276;-6.9418;
3101215740350212;47.6776;-1.8788;-6.9174;
3101215750350212;47.7874;-1.7812;-6.8686;
3101215760350212;47.9338;-1.7202;-6.9296;
3101215770350212;48.0802;-1.6592;-6.9662;
3101215780350212;48.2632;-1.6104;-7.0638;
3101215790350212;48.5682;-1.5372;-7.2468;
3101215800350212;48.7390;-1.4884;-7.3566;
3101215810350212;48.9098;-1.4640;-7.4176;
3101215820350212;49.1050;-1.3786;-7.5640;
3101215830350212;49.1416;-1.2932;-7.5762;
3101215840350212;49.2758;-1.2444;-7.6250;
3101215850350212;49.3856;-1.1224;-7.6982;
3101215860350212;49.4344;-1.0248;-7.6982;
3101215870350212;49.4710;-1.0004;-7.7348;
3101215880350212;49.5808;-0.9516;-7.7958;
3101215890350212;49.7516;-0.8784;-7.9544;
3101215900350212;49.8126;-0.8418;-8.0154;
3101215910350212;49.8614;-0.8540;-7.9910;
3101215920350212;49.8736;-0.8418;-8.0032;
3101215930350212;49.9224;-0.8174;-7.9300;
3101215940350212;49.9712;-0.8418;-7.9178;
3101215950350212;49.8980;-0.8174;-7.7348;
3101215960350212;49.8248;-0.8052;-7.5762;
3101215970350212;49.6906;-0.8296;-7.3566;
3101215980350212;49.6540;-0.7930;-7.1980;
3101215990350212;49.6540;-0.7808;-7.1736;
3101216000350212;49.5442;-0.8052;-6.9662;
3101216010350212;49.3978;-0.8052;-6.7710;
3101216020350212;49.3246;-0.8540;-6.6612;
3101216030350212;49.3612;-0.8540;-6.7344;
3101216040350212;49.4222;-0.8540;-6.7466;
3101216050350212;49.4954;-0.8662;-6.8442;
3101216060350212;49.5808;-0.9028;-6.9540;
3101216070350212;49.8126;-0.9150;-7.1858;
3101216080350212;49.9956;-0.8784;-7.4176;
3101216090350212;49.9712;-0.9394;-7.3200;
3101216100350212;49.9346;-0.9760;-7.1736;
3101216110350212;49.7882;-1.0248;-6.9540;
3101216120350212;49.6296;-1.1224;-6.7832;
3101216130350212;49.5198;-1.1346;-6.6002;
3101216140350212;49.3490;-1.1834;-6.3318;
3101216150350212;49.0318;-1.2322;-5.9170;
3101216160350212;48.8610;-1.2566;-5.5998;
3101216170350212;48.9464;-1.2810;-5.6974;
3101216180350212;49.1172;-1.2932;-5.8316;
3101216190350212;49.3368;-1.3054;-5.9536;
3101216200350212;49.5076;-1.2688;-6.1244;
3101216210350212;49.6906;-1.2810;-6.3806;
3101216220350212;50.0200;-1.2566;-6.8076;
3101216230350212;50.3128;-1.2932;-7.2102;
3101216240350212;50.5690;-1.3054;-7.5640;
3101216250350212;50.7764;-1.2932;-7.8080;
3101216260350212;50.7764;-1.2810;-7.9544;
3101216270350212;50.7154;-1.2810;-7.9300;
3101216280350212;50.6788;-1.2810;-7.9178;
3101216290350212;50.6666;-1.2810;-7.9422;
3101216300350212;50.5568;-1.3176;-7.7714;
3101216310350212;50.5446;-1.3054;-7.6494;
3101216320350212;50.5324;-1.3298;-7.7226;
3101216330350212;50.5080;-1.3664;-7.7470;
3101216340350212;50.5324;-1.3664;-7.6982;
3101216350350212;50.6544;-1.3786;-7.9300;
3101216360350212;50.7276;-1.4152;-7.9544;
3101216370350212;50.6666;-1.4762;-7.7348;
3101216380350212;50.5690;-1.4518;-7.6494;
3101216390350212;50.4104;-1.5128;-7.4786;
3101216400350212;50.2762;-1.5616;-7.2346;
3101216410350212;50.1542;-1.5372;-7.0882;
3101216420350212;50.0200;-1.6470;-7.0394;
3101216430350212;49.7882;-1.6714;-6.7344;
3101216440350212;49.5808;-1.6836;-6.4904;
3101216450350212;49.4832;-1.6836;-6.4904;
3101216460350212;49.4344;-1.7202;-6.4294;
3101216470350212;49.4954;-1.7446;-6.5026;
3101216480350212;49.5320;-1.7446;-6.6246;
3101216490350212;49.6418;-1.7812;-6.6368;
3101216500350212;49.7028;-1.7690;-6.5880;
3101216510350212;49.7638;-1.7568;-6.6124;
3101216520350212;49.8736;-1.8178;-6.7588;
3101216530350212;49.9590;-1.8300;-6.7466;
3101216540350212;49.9834;-1.8300;-6.7100;
3101216550350212;50.1054;-1.8300;-6.8076;
3101216560350212;50.0810;-1.8422;-6.6368;
3101216570350212;49.9712;-1.8178;-6.5880;
3101216580350212;50.0200;-1.7690;-6.5636;
3101216590350212;49.9834;-1.8178;-6.5026;
3101216600350212;49.9834;-1.7446;-6.3562;
3101216610350212;49.9102;-1.6958;-6.2952;
3101216620350212;49.8858;-1.6958;-6.3562;
3101216630350212;49.7028;-1.6714;-6.2342;
3101216640350212;49.5930;-1.6714;-6.2464;
3101216650350212;49.5442;-1.7080;-6.2098;
3101216660350212;49.4222;-1.6714;-6.1854;
3101216670350212;49.4466;-1.6714;-6.1854;
3101216680350212;49.4832;-1.6470;-6.2952;
3101216690350212;49.5076;-1.6958;-6.2586;
3101216700350212;49.5320;-1.6836;-6.1488;
3101216710350212;49.4832;-1.6592;-6.0024;
3101216720350212;49.4954;-1.6348;-5.7706;
3101216730350212;49.4100;-1.5738;-5.5266;
3101216740350212;49.4100;-1.5372;-5.3314;
3101216750350212;49.3490;-1.5128;-5.2460;
3101216760350212;49.2758;-1.5372;-5.0996;
3101216770350212;49.2758;-1.4884;-5.0508;
3101216780350212;49.3612;-1.4152;-5.1240;
3101216790350212;49.3734;-1.4274;-5.1240;
3101216800350212;49.4100;-1.4518;-5.2338;
3101216810350212;49.4954;-1.5006;-5.3558;
3101216820350212;49.5442;-1.5494;-5.4656;
3101216830350212;49.7028;-1.5006;-5.7706;
3101216840350212;49.8858;-1.4518;-5.9414;
3101216850350212;49.9712;-1.4518;-6.1122;
3101216860350212;49.9468;-1.4396;-6.0878;
3101216870350212;50.1176;-1.3908;-6.2952;
3101216880350212;50.2396;-1.3054;-6.5026;
3101216890350212;50.3616;-1.1834;-6.5636;
3101216900350212;50.3738;-1.1346;-6.6124;
3101216910350212;50.4470;-1.0370;-6.5270;
3101216920350212;50.4592;-0.9760;-6.5880;
3101216930350212;50.5568;-0.8784;-6.6002;
3101216940350212;50.6666;-0.8052;-6.6612;
3101216950350212;50.7154;-0.7320;-6.6978;
3101216960350212;50.8130;-0.6466;-6.7710;
3101216970350212;50.8862;-0.6222;-6.9052;
3101216980350212;50.9960;-0.5612;-7.0516;
3101216990350212;50.9838;-0.5124;-7.0150;
3101217000350212;50.9594;-0.4636;-7.0028;
3101217010350212;50.7398;-0.4148;-6.7710;
3101217020350212;50.4958;-0.3538;-6.5636;
3101217030350212;50.2762;-0.3416;-6.2952;
3101217040350212;50.0200;-0.3050;-5.9780;
3101217050350212;49.5564;-0.2196;-5.4168;
3101217060350212;49.4344;-0.1464;-5.2338;
3101217070350212;49.3856;-0.0854;-5.1484;
3101217080350212;49.3978;-0.0610;-5.1484;
3101217090350212;49.6174;0.0122;-5.4168;
3101217100350212;49.8614;0.0366;-5.7218;
3101217110350212;50.0444;0.1342;-5.9170;
3101217120350212;50.2152;0.1830;-6.1488;
3101217130350212;50.5568;0.2562;-6.6612;
3101217140350212;50.6422;0.2928;-6.7344;
3101217150350212;50.6422;0.3172;-6.8442;
3101217160350212;50.5446;0.3294;-6.6612;
3101217170350212;50.2396;0.3538;-6.2708;
3101217180350212;50.0566;0.3904;-5.9658;
3101217190350212;49.8858;0.3904;-5.6364;
3101217200350212;49.6662;0.3904;-5.2582;
3101217210350212;49.4466;0.3294;-4.8312;
3101217220350212;49.2636;0.2562;-4.5384;
3101217230350212;49.1172;0.2196;-4.2334;
3101217240350212;48.9952;0.2074;-4.0138;
3101217250350212;49.0806;0.1708;-4.0382;
3101217260350212;49.0806;0.1220;-4.0748;
3101217270350212;49.0440;0.0610;-4.1480;
3101217280350212;49.0562;0.0122;-4.2700;
3101217290350212;49.1172;-0.0488;-4.2944;
3101217300350212;49.0684;-0.0488;-4.2944;
3101217310350212;49.0684;-0.1098;-4.2822;
3101217320350212;49.0928;-0.1342;-4.3676;
3101217330350212;49.1904;-0.1342;-4.3676;
3101217340350212;49.2636;-0.1830;-4.3066;
3101217350350212;49.3734;-0.1952;-4.2578;
3101217360350212;49.4832;-0.1830;-4.2334;
3101217370350212;49.6662;-0.1952;-4.4042;
3101217380350212;49.9102;-0.2196;-4.5018;
3101217390350212;50.0200;-0.2196;-4.6116;
3101217400350212;50.0810;-0.2440;-4.6604;
3101217410350212;50.0688;-0.3172;-4.7214;
3101217420350212;50.0688;-0.3660;-4.7580;
3101217430350212;50.0200;-0.4026;-4.7702;
3101217440350212;50.0200;-0.5002;-4.7214;
3101217450350212;49.9102;-0.5368;-4.6848;
3101217460350212;49.8004;-0.5612;-4.6848;
3101217470350212;49.7760;-0.6344;-4.6604;
3101217480350212;49.7150;-0.6710;-4.5506;
3101217490350212;49.7028;-0.6832;-4.5628;
3101217500350212;49.7028;-0.6832;-4.5994;
3101217510350212;49.6540;-0.7442;-4.6482;
3101217520350212;49.5320;-0.7808;-4.6238;
3101217530350212;49.4344;-0.7808;-4.5628;
3101217540350212;49.4710;-0.7442;-4.6116;
3101217550350212;49.4588;-0.6710;-4.6482;
3101217560350212;49.4954;-0.6588;-4.7580;
3101217570350212;49.5076;-0.6344;-4.8678;
3101217580350212;49.5198;-0.6222;-4.8922;
3101217590350212;49.5930;-0.5856;-4.9532;
3101217600350212;49.7028;-0.5002;-5.1728;
3101217610350212;49.8858;-0.5002;-5.3314;
3101217620350212;49.8370;-0.5612;-5.3436;
3101217630350212;49.7272;-0.6100;-5.3314;
3101217640350212;49.7394;-0.6466;-5.3436;
3101217650350212;49.7272;-0.7076;-5.3558;
3101217660350212;49.6540;-0.7320;-5.4046;
3101217670350212;49.6540;-0.7930;-5.4778;
3101217680350212;49.6906;-0.8540;-5.5266;
3101217690350212;49.8004;-0.8662;-5.6974;
3101217700350212;49.9590;-0.9150;-5.9048;
3101217710350212;50.2030;-0.8784;-6.1244;
3101217720350212;50.2274;-0.8784;-6.2464;
3101217730350212;50.2640;-0.8784;-6.2220;
3101217740350212;50.3494;-0.9028;-6.2708;
3101217750350212;50.3616;-0.9028;-6.3074;
3101217760350212;50.3250;-0.9150;-6.2586;
3101217770350212;50.1908;-0.9394;-6.1244;
3101217780350212;50.1298;-0.9516;-6.0390;
3101217790350212;49.9590;-1.0370;-5.9414;
3101217800350212;49.9468;-1.0858;-5.8926;
3101217810350212;49.8736;-1.1224;-5.7950;
3101217820350212;49.7638;-1.1468;-5.6974;
3101217830350212;49.6906;-1.1590;-5.6364;
3101217840350212;49.6052;-1.2200;-5.5632;
3101217850350212;49.6296;-1.2444;-5.6608;
3101217860350212;49.5930;-1.2566;-5.6608;
3101217870350212;49.6906;-1.2444;-5.7462;
3101217880350212;49.7638;-1.2200;-5.9048;
3101217890350212;49.8492;-1.2322;-6.1244;
3101217900350212;50.0200;-1.2078;-6.3196;
3101217910350212;50.1420;-1.2078;-6.5026;
3101217920350212;50.2762;-1.2200;-6.6612;
3101217930350212;50.2396;-1.2078;-6.7344;
3101217940350212;50.2396;-1.2322;-6.7344;
3101217950350212;50.3128;-1.2078;-6.8320;
3101217960350212;50.3738;-1.2444;-6.8686;
3101217970350212;50.4226;-1.2322;-6.8808;
3101217980350212;50.4958;-1.2444;-6.9662;
3101217990350212;50.5934;-1.2566;-7.0028;
3101218000350212;50.3128;-1.2200;-6.6490;
3101218010350212;50.4470;-1.2322;-6.7588;
3101218020350212;50.4226;-1.2322;-6.8198;
3101218030350212;50.2884;-1.2688;-6.6490;
3101218040350212;50.0932;-1.2932;-6.5026;
3101218050350212;50.0566;-1.3054;-6.5758;
3101218060350212;49.8370;-1.3298;-6.2952;
3101218070350212;49.6540;-1.4030;-6.1610;
3101218080350212;49.8248;-1.4640;-6.4782;
3101218090350212;49.6418;-1.5006;-6.2342;
3101218100350212;49.6052;-1.5738;-6.1000;
3101218110350212;49.5442;-1.5494;-6.0390;
3101218120350212;49.4954;-1.5860;-5.8926;
3101218130350212;49.3246;-1.6470;-5.5876;
3101218140350212;49.3124;-1.6714;-5.6242;
3101218150350212;49.2392;-1.6836;-5.5266;
3101218160350212;48.9708;-1.6592;-5.0874;
3101218170350212;49.0562;-1.6714;-5.1606;
3101218180350212;49.0684;-1.6104;-5.1972;
3101218190350212;49.1538;-1.6958;-5.3192;
3101218200350212;49.2880;-1.7080;-5.5632;
3101218210350212;49.3856;-1.7202;-5.6608;
3101218220350212;49.3612;-1.8178;-5.6730;
3101218230350212;49.5198;-1.8300;-5.8072;
3101218240350212;49.8736;-1.8788;-6.2708;
3101218250350212;49.8980;-1.9398;-6.2830;
3101218260350212;49.9956;-1.9886;-6.4050;
3101218270350212;50.0078;-2.0252;-6.3562;
3101218280350212;49.9834;-2.0496;-6.2830;
3101218290350212;50.0566;-2.1350;-6.3562;
3101218300350212;50.1664;-2.1716;-6.3684;
3101218310350212;50.1786;-2.1838;-6.3928;
3101218320350212;50.2030;-2.2326;-6.3318;
3101218330350212;50.2396;-2.2448;-6.3074;
3101218340350212;50.2274;-2.3180;-6.1854;
3101218350350212;50.2640;-2.4034;-6.2220;
3101218360350212;50.2762;-2.4644;-6.1366;
3101218370350212;50.2518;-2.5010;-6.1244;
3101218380350212;50.3006;-2.5254;-6.1732;
3101218390350212;50.3860;-2.6108;-6.2220;
3101218400350212;50.4714;-2.6840;-6.2098;
3101218410350212;50.4714;-2.7572;-6.2464;
3101218420350212;50.5324;-2.9158;-6.3318;
3101218430350212;50.5446;-3.0134;-6.3196;
3101218440350212;50.6666;-3.1110;-6.4782;
3101218450350212;50.7764;-3.2086;-6.5514;
3101218460350212;50.8008;-3.2818;-6.5026;
3101218470350212;50.7642;-3.3794;-6.4416;
3101218480350212;50.6300;-3.5502;-6.3318;
3101218490350212;50.5568;-3.6966;-6.1488;
3101218500350212;50.3494;-3.7576;-5.8438;
3101218510350212;50.2152;-3.8064;-5.5998;
3101218520350212;50.1054;-3.9162;-5.3436;
3101218530350212;50.0078;-4.0260;-5.1362;
3101218540350212;49.9102;-4.0992;-4.9654;
3101218550350212;49.8004;-4.1846;-4.8190;
3101218560350212;49.8858;-4.1968;-4.9166;
3101218570350212;49.9712;-4.1846;-4.9654;
3101218580350212;50.0444;-4.2212;-5.0142;
3101218590350212;50.0810;-4.2822;-5.0142;
3101218600350212;50.0566;-4.2822;-5.0508;
3101218610350212;50.0932;-4.2456;-5.1240;
3101218620350212;49.9956;-4.3310;-5.0508;
3101218630350212;49.8980;-4.3554;-5.0386;
3101218640350212;49.6906;-4.3432;-4.8068;
3101218650350212;49.4832;-4.4042;-4.6482;
3101218660350212;49.3490;-4.3798;-4.5506;
3101218670350212;49.1538;-4.3676;-4.3554;
3101218680350212;48.9464;-4.3310;-4.0870;
3101218690350212;48.7268;-4.3310;-3.7454;
3101218700350212;48.6780;-4.2944;-3.7210;
3101218710350212;48.7268;-4.2456;-3.5990;
3101218720350212;48.7268;-4.1968;-3.5868;
3101218730350212;48.7634;-4.1114;-3.5990;
3101218740350212;48.8244;-4.1236;-3.5868;
3101218750350212;49.0684;-4.0626;-3.9284;
3101218760350212;49.2636;-4.0626;-4.2944;
3101218770350212;49.4466;-4.0138;-4.6482;
3101218780350212;49.5808;-3.9528;-4.8068;
3101218790350212;49.5686;-3.9162;-4.9044;
3101218800350212;49.6296;-3.8918;-5.0630;
3101218810350212;49.5076;-3.9040;-5.0264;
3101218820350212;49.5686;-3.8308;-5.1240;
3101218830350212;49.4954;-3.7820;-5.0752;
3101218840350212;49.5564;-3.7210;-5.1484;
3101218850350212;49.4832;-3.6722;-5.1240;
3101218860350212;49.5198;-3.5990;-5.1850;
3101218870350212;49.5442;-3.5258;-5.2582;
3101218880350212;49.5686;-3.4282;-5.2704;
3101218890350212;49.8126;-3.3428;-5.5266;
3101218900350212;49.8492;-3.2452;-5.6120;
3101218910350212;49.8492;-3.1476;-5.6608;
3101218920350212;49.6906;-3.0500;-5.4656;
3101218930350212;49.6784;-2.9402;-5.3558;
3101218940350212;49.5686;-2.8914;-5.1728;
3101218950350212;49.5564;-2.8792;-5.0874;
3101218960350212;49.4710;-2.8670;-4.9410;
3101218970350212;49.2514;-2.8548;-4.7702;
3101218980350212;49.0928;-2.8792;-4.5628;
3101218990350212;49.0684;-2.9646;-4.4408;
3101219000350212;49.1050;-3.0866;-4.5506;
3101219010350212;49.1660;-3.2330;-4.6726;
3101219020350212;49.1050;-3.3794;-4.7580;
3101219030350212;49.0074;-3.4526;-4.7092;
3101219040350212;48.9342;-3.5868;-4.6360;
3101219050350212;48.8976;-3.7332;-4.5384;
3101219060350212;48.8244;-3.8796;-4.5018;
3101219070350212;48.6536;-4.0382;-4.4408;
3101219080350212;48.5682;-4.0870;-4.2578;
3101219090350212;48.4462;-4.1602;-4.0504;
3101219100350212;48.4828;-4.1968;-4.0382;
3101219110350212;48.4706;-4.2822;-3.9894;
3101219120350212;48.3974;-4.4042;-3.9894;
3101219130350212;48.4828;-4.4164;-4.0626;
3101219140350212;48.5438;-4.5262;-4.1236;
3101219150350212;48.6048;-4.5628;-4.1846;
3101219160350212;48.5194;-4.6238;-4.2456;
3101219170350212;48.3730;-4.7092;-4.1358;
3101219180350212;48.2632;-4.7946;-3.9406;
3101219190350212;48.1778;-4.8678;-3.8674;
3101219200350212;48.2388;-4.8434;-3.9406;
3101219210350212;48.1412;-4.9532;-3.9040;
3101219220350212;48.1168;-4.9654;-3.8186;
3101219230350212;48.1534;-5.0020;-3.8186;
3101219240350212;48.2876;-5.0142;-3.9284;
3101219250350212;48.4462;-5.0630;-4.0992;
3101219260350212;48.6292;-5.0386;-4.3798;
3101219270350212;48.8122;-5.0142;-4.6116;
3101219280350212;48.8244;-5.0630;-4.7336;
3101219290350212;48.9342;-5.0142;-4.7336;
3101219300350212;48.9952;-4.9898;-4.7946;
3101219310350212;48.9952;-4.9410;-4.7824;
3101219320350212;48.9586;-4.9410;-4.6360;
3101219330350212;49.0196;-4.9532;-4.7214;
3101219340350212;48.9342;-4.9898;-4.5384;
3101219350350212;48.8122;-5.0020;-4.4164;
3101219360350212;48.9342;-5.0020;-4.4164;
3101219370350212;48.9708;-5.0264;-4.5140;
3101219380350212;49.0928;-5.0020;-4.7458;
3101219390350212;49.2148;-5.0020;-4.8312;
3101219400350212;49.2758;-5.0142;-4.9898;
3101219410350212;49.3490;-4.9410;-5.0630;
3101219420350212;49.4100;-4.9410;-5.1728;
3101219430350212;49.3734;-4.9776;-5.1118;
3101219440350212;49.4222;-4.9044;-5.1850;
3101219450350212;49.5076;-4.8800;-5.2582;
3101219460350212;49.3978;-4.8800;-5.0874;
3101219470350212;49.2514;-4.8556;-4.9532;
3101219480350212;49.2270;-4.8190;-4.9166;
3101219490350212;49.1782;-4.7824;-4.8800;
3101219500350212;49.1782;-4.6726;-4.8678;
3101219510350212;49.3124;-4.5628;-5.0386;
3101219520350212;49.1660;-4.5628;-4.8434;
3101219530350212;48.9464;-4.5262;-4.5994;
3101219540350212;48.9098;-4.4530;-4.6360;
3101219550350212;49.0440;-4.3676;-4.8190;
3101219560350212;49.0684;-4.2700;-4.8068;
3101219570350212;49.0684;-4.2090;-4.8312;
3101219580350212;49.1172;-4.1968;-4.9288;
3101219590350212;49.1294;-4.1358;-4.9898;
3101219600350212;49.2026;-4.0016;-5.1728;
3101219610350212;49.2392;-3.9406;-5.4046;
3101219620350212;49.3002;-3.9284;-5.5510;
3101219630350212;49.1294;-3.9284;-5.5266;
3101219640350212;49.0440;-3.9406;-5.5266;
3101219650350212;49.0196;-3.8552;-5.5388;
3101219660350212;48.8854;-3.7576;-5.4656;
3101219670350212;48.8732;-3.6844;-5.4656;
3101219680350212;48.8000;-3.6356;-5.3680;
3101219690350212;49.1416;-3.5380;-5.6486;
3101219700350212;49.1416;-3.3672;-5.5510;
3101219710350212;49.2270;-3.2452;-5.5998;
3101219720350212;49.2392;-3.1476;-5.6486;
3101219730350212;49.2514;-3.0500;-5.6364;
3101219740350212;49.2636;-3.0134;-5.5510;
3101219750350212;49.1294;-2.9646;-5.4046;
3101219760350212;49.1172;-2.8914;-5.3924;
3101219770350212;48.8854;-2.8060;-5.0752;
3101219780350212;48.9342;-2.7450;-5.1362;
3101219790350212;48.8244;-2.7084;-4.9532;
3101219800350212;48.8122;-2.6352;-4.9288;
3101219810350212;48.7146;-2.6474;-4.7702;
3101219820350212;48.7268;-2.5742;-4.8434;
3101219830350212;48.7390;-2.5254;-4.8922;
3101219840350212;48.6292;-2.4766;-4.7824;
3101219850350212;48.3364;-2.4400;-4.5506;
3101219860350212;48.1656;-2.4034;-4.3432;
3101219870350212;48.2022;-2.3302;-4.3920;
3101219880350212;48.0680;-2.2204;-4.2090;
3101219890350212;47.9582;-2.1228;-4.1846;
3101219900350212;47.8606;-2.0862;-4.0992;
3101219910350212;47.8728;-1.9764;-4.0870;
3101219920350212;48.0314;-1.9520;-4.2822;
3101219930350212;48.2510;-1.8666;-4.4896;
3101219940350212;48.4096;-1.8056;-4.6116;
3101219950350212;48.4218;-1.7324;-4.7092;
3101219960350212;48.6292;-1.6836;-5.0142;
3101219970350212;48.8000;-1.6226;-5.2216;
3101219980350212;48.8732;-1.5494;-5.3558;
3101219990350212;48.9220;-1.5006;-5.4290;
3101220000350212;48.9098;-1.4152;-5.4290;
3101220010350212;48.8610;-1.4030;-5.4656;
3101220020350212;48.7634;-1.4152;-5.4290;
3101220030350212;48.5682;-1.3664;-5.2338;
3101220040350212;48.3974;-1.3420;-5.0386;
3101220050350212;48.3364;-1.2688;-4.9898;
3101220060350212;48.4462;-1.2078;-5.0508;
3101220070350212;48.3242;-1.1956;-5.0020;
3101220080350212;48.2144;-1.1590;-4.9044;
3101220090350212;48.1778;-1.0858;-4.7946;
3101220100350212;48.1534;-0.9882;-4.7702;
3101220110350212;48.2754;-0.9272;-4.8678;
3101220120350212;48.2388;-0.9150;-4.8312;
3101220130350212;48.1778;-0.9394;-4.7458;
3101220140350212;48.1046;-0.9638;-4.7580;
3101220150350212;48.1656;-0.9150;-4.7702;
3101220160350212;48.2022;-0.9028;-4.8434;
3101220170350212;48.3242;-0.9028;-4.9288;
3101220180350212;48.3486;-0.9028;-4.9288;
3101220190350212;48.4584;-0.9150;-5.0386;
3101220200350212;48.6292;-0.8906;-5.2582;
3101220210350212;48.7634;-0.8540;-5.3802;
3101220220350212;48.8122;-0.8540;-5.3802;
3101220230350212;48.8732;-0.8540;-5.4168;
3101220240350212;48.9464;-0.8418;-5.3924;
3101220250350212;48.9220;-0.8296;-5.3924;
3101220260350212;48.9952;-0.8052;-5.5144;
3101220270350212;48.9708;-0.8296;-5.4778;
3101220280350212;48.9342;-0.8906;-5.4168;
3101220290350212;48.9586;-0.9394;-5.4656;
3101220300350212;49.0318;-0.9394;-5.5144;
3101220310350212;49.0562;-0.9516;-5.5388;
3101220320350212;49.0196;-1.0126;-5.5632;
3101220330350212;49.0562;-1.0492;-5.5998;
3101220340350212;49.0684;-1.1102;-5.6120;
3101220350350212;49.1294;-1.0858;-5.7096;
3101220360350212;49.2026;-1.0736;-5.7462;
3101220370350212;49.1538;-1.0614;-5.7096;
3101220380350212;49.0928;-1.0126;-5.6852;
3101220390350212;49.0440;-1.0248;-5.5998;
3101220400350212;48.9464;-1.0248;-5.5022;
3101220410350212;48.7756;-1.0126;-5.3558;
3101220420350212;48.5682;-0.9760;-5.1606;
3101220430350212;48.4218;-0.9638;-4.9166;
3101220440350212;48.2266;-0.9394;-4.7702;
3101220450350212;48.1900;-0.8906;-4.7092;
3101220460350212;48.1046;-0.8784;-4.5872;
3101220470350212;48.0070;-0.8540;-4.5506;
3101220480350212;48.0314;-0.7564;-4.6238;
3101220490350212;48.0192;-0.7320;-4.6482;
3101220500350212;48.1046;-0.6710;-4.7336;
3101220510350212;48.1900;-0.6100;-4.8678;
3101220520350212;48.2144;-0.5612;-4.8922;
3101220530350212;48.0924;-0.5002;-4.8434;
3101220540350212;48.1046;-0.4758;-4.8800;
3101220550350212;48.1412;-0.4758;-4.9532;
3101220560350212;48.1900;-0.5002;-5.0386;
3101220570350212;48.2632;-0.4514;-5.0752;
3101220580350212;48.2876;-0.4270;-5.1362;
3101220590350212;48.2632;-0.4270;-5.2216;
3101220600350212;48.2144;-0.4636;-5.3192;
3101220610350212;48.1412;-0.5246;-5.2704;
3101220620350212;48.0070;-0.5612;-5.2948;
3101220630350212;47.9216;-0.5612;-5.3436;
3101220640350212;47.7386;-0.5978;-5.2826;
3101220650350212;47.6532;-0.6222;-5.4290;
3101220660350212;47.4946;-0.6222;-5.4412;
3101220670350212;47.3726;-0.6954;-5.4412;
3101220680350212;47.3238;-0.6344;-5.4168;
3101220690350212;47.2750;-0.6100;-5.4656;
3101220700350212;47.3238;-0.6100;-5.5876;
3101220710350212;47.3848;-0.5734;-5.7218;
3101220720350212;47.5678;-0.5246;-5.9658;
3101220730350212;47.7142;-0.5734;-6.0512;
3101220740350212;47.9216;-0.5978;-6.2586;
3101220750350212;48.1046;-0.5612;-6.4538;
3101220760350212;48.2022;-0.5612;-6.6246;
3101220770350212;48.3608;-0.5612;-6.8198;
3101220780350212;48.2876;-0.5490;-6.6978;
3101220790350212;48.2266;-0.5734;-6.5270;
3101220800350212;48.0558;-0.5734;-6.2342;
3101220810350212;47.8606;-0.5246;-5.9048;
3101220820350212;47.5678;-0.5246;-5.6242;
3101220830350212;47.3482;-0.5490;-5.3192;
3101220840350212;47.2750;-0.5246;-5.0752;
3101220850350212;47.2750;-0.5368;-4.8434;
3101220860350212;47.4580;-0.5002;-4.8678;
3101220870350212;47.4702;-0.4270;-4.6848;
3101220880350212;47.5678;-0.4148;-4.6848;
3101220890350212;47.6532;-0.3660;-4.7214;
3101220900350212;47.9338;-0.3050;-4.7580;
3101220910350212;48.2144;-0.2440;-4.9044;
3101220920350212;48.4706;-0.2440;-5.1362;
3101220930350212;48.5926;-0.2196;-5.2948;
3101220940350212;48.6292;-0.2318;-5.3558;
3101220950350212;48.8122;-0.2562;-5.5998;
3101220960350212;48.8732;-0.2562;-5.6486;
3101220970350212;48.9342;-0.2562;-5.6486;
3101220980350212;48.7878;-0.3050;-5.4900;
3101220990350212;48.8488;-0.3416;-5.6120;
3101221000350212;48.6048;-0.4026;-5.2948;
3101221010350212;48.4584;-0.4148;-5.1850;
3101221020350212;48.3486;-0.4026;-5.0508;
3101221030350212;48.1534;-0.4026;-4.9410;
3101221040350212;48.1290;-0.4392;-4.9044;
3101221050350212;48.0924;-0.4880;-4.9410;
3101221060350212;48.1900;-0.4636;-5.1240;
3101221070350212;48.0436;-0.4636;-4.9410;
3101221080350212;48.1412;-0.4270;-5.1240;
3101221090350212;48.3608;-0.4148;-5.2338;
3101221100350212;48.5682;-0.4636;-5.4534;
3101221110350212;48.6536;-0.5246;-5.4778;
3101221120350212;48.7634;-0.5124;-5.5876;
3101221130350212;48.8488;-0.5124;-5.6242;
3101221140350212;48.9586;-0.5612;-5.7462;
3101221150350212;49.0074;-0.5734;-5.8316;
3101221160350212;48.9464;-0.6100;-5.8316;
3101221170350212;48.7390;-0.6588;-5.7340;
3101221180350212;48.4340;-0.6588;-5.5388;
3101221190350212;48.3974;-0.5978;-5.5510;
3101221200350212;48.3120;-0.5978;-5.5388;
3101221210350212;48.2388;-0.5734;-5.5510;
3101221220350212;48.1534;-0.5368;-5.3802;
3101221230350212;48.1046;-0.5368;-5.3314;
3101221240350212;48.0924;-0.5368;-5.3680;
3101221250350212;48.1778;-0.5124;-5.4046;
3101221260350212;48.2876;-0.5246;-5.5632;
3101221270350212;48.3242;-0.5612;-5.7584;
3101221280350212;48.2510;-0.5856;-5.7584;
3101221290350212;48.2754;-0.6222;-5.8804;
