Sensor: mmc5603x Magnetometer Non-wakeup
Vendor: memsic
TimestampMag [ns]; MagX [uT]; MagY [uT]; MagZ [uT]
513802106723490;43.0904;-32.1714;9.5892;
513802116723490;43.0904;-32.1714;9.5892;
513802128058282;43.0294;-32.1226;9.9064;
513802138058282;42.7854;-32.1836;10.1870;
513802148058282;42.5536;-32.2080;10.5286;
513802158058282;42.4926;-32.2446;10.5408;
513802168058282;42.5292;-32.2324;10.4920;
513802178058282;42.6268;-32.2202;10.3822;
513802188058282;42.5170;-32.2202;10.5774;
513802198058282;42.4682;-32.1958;10.6872;
513802208058282;42.4316;-32.1836;10.6750;
513802218058282;42.6024;-32.1958;10.5530;
513802228058282;42.7244;-32.2202;10.4310;
513802238058282;42.7732;-32.2324;10.4188;
513802248058282;42.8098;-32.2446;10.4188;
513802258058282;42.7610;-32.2812;10.5530;
513802268058282;42.9440;-32.3178;10.3944;
513802278058282;42.8952;-32.3910;10.4310;
513802288058282;43.0294;-32.4520;10.3456;
513802298058282;43.0416;-32.4398;10.1992;
513802308058282;43.1392;-32.4154;9.9674;
513802318058282;43.3222;-32.3910;9.7356;
513802328058282;43.4198;-32.3788;9.5892;
513802338058282;43.5296;-32.3300;9.2720;
513802348058282;43.5540;-32.3300;9.1622;
513802358058282;43.6882;-32.3422;9.0890;
513802368058282;43.7492;-32.3056;8.9426;
513802378058282;43.8102;-32.2812;8.9670;
513802388058282;43.8712;-32.2568;8.9670;
513802398058282;43.8468;-32.2690;8.9914;
513802408058282;43.8468;-32.2568;8.9670;
513802418058282;43.9566;-32.2690;8.9182;
513802428058282;44.0664;-32.2080;8.7230;
513802438058282;44.1152;-32.1348;8.5522;
513802448058282;44.0664;-32.1226;8.5766;
513802458058282;44.1518;-32.0982;8.4302;
513802468058282;44.2006;-32.1104;8.3326;
513802478058282;44.2128;-32.0738;8.3448;
513802488058282;44.3226;-32.0860;8.1862;
513802498058282;44.2738;-32.0860;8.2228;
513802508058282;44.2372;-32.1226;8.3082;
513802518058282;44.3104;-32.1836;8.2716;
513802528058282;44.3348;-32.2202;8.2960;
513802538058282;44.1274;-32.2812;8.5156;
513802548058282;44.0786;-32.2446;8.5644;
513802558058282;44.0908;-32.2690;8.5156;
513802568058282;43.9932;-32.2690;8.6254;
513802578058282;43.8834;-32.2812;8.7596;
513802588058282;43.7248;-32.2812;9.0158;
513802598058282;43.5296;-32.2446;9.2110;
513802608058282;43.4686;-32.2934;9.1988;
513802618058282;43.5052;-32.2812;9.1378;
513802628058282;43.4198;-32.3056;9.2476;
513802638058282;43.2856;-32.3178;9.3818;
513802648058282;43.1636;-32.3300;9.4916;
513802658058282;43.1148;-32.3422;9.5526;
513802668058282;43.1514;-32.3056;9.4306;
513802678058282;43.1880;-32.3056;9.3818;
513802688058282;43.1392;-32.2324;9.4550;
513802698058282;43.0904;-32.2324;9.4428;
513802708058282;43.1880;-32.2446;9.3940;
513802718058282;43.3100;-32.1958;9.2964;
513802728058282;43.3954;-32.2080;9.1866;
513802738058282;43.4564;-32.1836;9.1134;
513802748058282;43.3954;-32.2568;9.1378;
513802758058282;43.5174;-32.2324;9.0036;
513802768058282;43.6028;-32.2324;8.8694;
513802778058282;43.7004;-32.2202;8.8694;
513802788058282;43.6516;-32.2202;8.8694;
513802798058282;43.5662;-32.1958;8.8816;
513802808058282;43.5296;-32.1592;8.9304;
513802818058282;43.4930;-32.1470;8.9182;
513802828058282;43.5418;-32.0860;8.9060;
513802838058282;43.6150;-32.0860;8.7596;
513802848058282;43.8346;-32.0982;8.4912;
513802858058282;44.1274;-32.0738;8.0764;
513802868058282;44.2982;-32.0738;7.8202;
513802878058282;44.4202;-32.1348;7.6372;
513802888058282;44.6032;-32.1226;7.5030;
513802898058282;44.7984;-32.0982;7.3078;
513802908058282;44.9936;-32.1470;7.0760;
513802918058282;44.9936;-32.1592;7.1736;
513802928058282;44.8228;-32.1348;7.4176;
513802938058282;44.5056;-32.1592;7.7592;
513802948058282;44.4080;-32.1470;7.9056;
513802958058282;44.3226;-32.1836;8.0520;
513802968058282;44.1762;-32.2324;8.1862;
513802978058282;43.9322;-32.2690;8.4302;
513802988058282;43.7980;-32.2690;8.6010;
513802998058282;43.6882;-32.2690;8.6742;
513803008058282;43.6760;-32.3178;8.6620;
513803018058282;43.7248;-32.3056;8.6010;
513803028058282;43.7248;-32.3422;8.5522;
513803038058282;43.7614;-32.3788;8.4424;
513803048058282;43.7614;-32.4276;8.4058;
513803058058282;43.9688;-32.4276;8.1984;
513803068058282;43.9444;-32.4764;8.1130;
513803078058282;43.8834;-32.5130;8.1252;
513803088058282;43.8712;-32.5740;8.1008;
513803098058282;43.8590;-32.6228;8.0642;
513803108058282;43.8834;-32.6594;8.0032;
513803118058282;44.0420;-32.6228;7.7958;
513803128058282;44.1640;-32.6350;7.5396;
513803138058282;44.1152;-32.6960;7.4908;
513803148058282;44.1274;-32.7082;7.3688;
513803158058282;44.2128;-32.7570;7.1492;
513803168058282;44.3348;-32.7814;7.0272;
513803178058282;44.4568;-32.8302;6.8808;
513803188058282;44.4568;-32.8668;6.8442;
513803198058282;44.3714;-32.9400;6.9662;
513803208058282;44.3714;-32.9522;6.9418;
513803218058282;44.3958;-33.0010;7.0394;
513803228058282;44.4690;-33.0132;6.9540;
513803238058282;44.5300;-33.0010;6.9418;
513803248058282;44.4934;-33.0010;6.8442;
513803258058282;44.4934;-33.0376;6.7466;
513803268058282;44.5544;-33.0132;6.7100;
513803278058282;44.5788;-33.0010;6.6856;
513803288058282;44.5178;-33.0010;6.7832;
513803298058282;44.5910;-33.0010;6.5514;
513803308058282;44.6276;-33.0132;6.5026;
513803318058282;44.5910;-33.0864;6.5148;
513803328058282;44.5056;-33.0864;6.6734;
513803338058282;44.3470;-33.0864;6.8930;
513803348058282;44.3226;-33.0864;6.9174;
513803358058282;44.3958;-33.1108;6.7710;
513803368058282;44.4812;-33.1352;6.6368;
513803378058282;44.4568;-33.0742;6.7344;
513803388058282;44.4202;-33.0376;6.8442;
513803398058282;44.3714;-32.9644;6.9052;
513803408058282;44.4446;-32.9644;6.9052;
513803418058282;44.4690;-32.9522;6.8442;
513803428058282;44.3592;-32.9400;6.9296;
513803438058282;44.0908;-32.9156;7.2590;
513803448058282;43.9078;-32.9034;7.4298;
513803458058282;43.7370;-32.9400;7.6128;
513803468058282;43.6882;-32.9766;7.7104;
513803478058282;43.6516;-33.0254;7.7470;
513803488058282;43.6028;-33.0254;7.7104;
513803498058282;43.6150;-33.0498;7.7592;
513803508058282;43.7004;-33.0742;7.7836;
513803518058282;43.7004;-33.1108;7.8202;
513803528058282;43.7004;-33.1230;7.8568;
513803538058282;43.8224;-33.1596;7.7348;
513803548058282;43.9078;-33.1962;7.6006;
513803558058282;44.0664;-33.1962;7.4176;
513803568058282;44.0542;-33.2450;7.4908;
513803578058282;43.9810;-33.2938;7.5152;
513803588058282;43.9078;-33.3548;7.5030;
513803598058282;43.9566;-33.3914;7.4176;
513803608058282;43.9688;-33.4402;7.4542;
513803618058282;43.8590;-33.4524;7.5518;
513803628058282;43.7492;-33.5134;7.6250;
513803638058282;43.5784;-33.5622;7.6982;
513803648058282;43.6760;-33.6354;7.5030;
513803658058282;43.8102;-33.6354;7.2712;
513803668058282;43.8956;-33.6598;7.1614;
513803678058282;43.9200;-33.7208;7.0516;
513803688058282;43.6516;-33.8062;7.1858;
513803698058282;43.5174;-33.8794;7.2834;
513803708058282;43.2978;-33.9648;7.4908;
513803718058282;43.1392;-34.0502;7.7226;
513803728058282;42.7488;-34.0990;8.1496;
513803738058282;42.4682;-34.2088;8.4180;
513803748058282;42.1876;-34.2820;8.6254;
513803758058282;42.0168;-34.3674;8.7474;
513803768058282;42.1022;-34.4284;8.6010;
513803778058282;42.0656;-34.5138;8.5766;
513803788058282;42.0778;-34.5138;8.5034;
513803798058282;41.9924;-34.5626;8.5644;
513803808058282;42.0290;-34.6724;8.5278;
513803818058282;41.9314;-34.7212;8.6742;
513803828058282;41.8338;-34.8066;8.7352;
513803838058282;41.6752;-34.8554;8.9304;
513803848058282;41.5776;-34.9042;9.0402;
513803858058282;41.4922;-34.9164;9.0402;
513803868058282;41.4678;-34.9774;9.0646;
513803878058282;41.5288;-34.9774;8.9670;
513803888058282;41.3580;-34.9774;9.0524;
513803898058282;41.4312;-34.9774;8.9670;
513803908058282;41.5532;-34.9286;8.8328;
513803918058282;41.6020;-34.9164;8.7108;
513803928058282;41.8582;-34.9652;8.4912;
513803938058282;42.0534;-34.9896;8.3082;
513803948058282;42.1022;-34.9896;8.1252;
513803958058282;42.2364;-35.0262;7.8812;
513803968058282;42.5658;-35.0628;7.4176;
513803978058282;42.7122;-35.0750;7.0394;
513803988058282;42.7976;-35.1116;6.8198;
513803998058282;42.9196;-35.2092;6.4660;
513804008058282;42.7854;-35.2580;6.2220;
513804018058282;42.6390;-35.3068;6.0878;
513804028058282;42.5536;-35.3922;5.9658;
513804038058282;42.3706;-35.4654;5.9536;
513804048058282;42.2242;-35.5020;5.9902;
513804058058282;42.0778;-35.5752;6.0756;
513804068058282;41.9070;-35.6606;6.2464;
513804078058282;41.8582;-35.6484;6.3440;
513804088058282;41.6752;-35.6606;6.6246;
513804098058282;41.6386;-35.6972;6.7588;
513804108058282;41.6508;-35.7216;6.7832;
513804118058282;41.7972;-35.6850;6.7466;
513804128058282;41.8704;-35.7094;6.8076;
513804138058282;41.9070;-35.6606;6.8686;
513804148058282;41.9436;-35.6728;6.7588;
513804158058282;41.9192;-35.6484;6.8930;
513804168058282;42.0412;-35.6118;6.8808;
513804178058282;42.1510;-35.5874;6.8076;
513804188058282;42.1754;-35.5264;6.9052;
513804198058282;42.0656;-35.5142;7.0516;
513804208058282;42.0656;-35.4776;6.9906;
513804218058282;42.0168;-35.4776;7.0028;
513804228058282;42.0534;-35.3922;7.0638;
513804238058282;42.0656;-35.4166;6.9784;
513804248058282;42.1998;-35.3922;6.8442;
513804258058282;42.2608;-35.3434;6.7954;
513804268058282;42.3340;-35.3068;6.7100;
513804278058282;42.4804;-35.2702;6.5270;
513804288058282;42.5658;-35.2336;6.4904;
513804298058282;42.6756;-35.1604;6.3562;
513804308058282;42.6634;-35.1604;6.3074;
513804318058282;42.7000;-35.0872;6.3562;
513804328058282;42.7000;-35.0750;6.3684;
513804338058282;42.6390;-35.0506;6.5270;
513804348058282;42.7976;-35.0506;6.4294;
513804358058282;42.8708;-35.0262;6.3196;
513804368058282;42.8830;-35.0018;6.3806;
513804378058282;42.9318;-34.9896;6.4416;
513804388058282;43.1026;-34.9652;6.2342;
513804398058282;43.2856;-34.8798;6.0146;
513804408058282;43.3222;-34.8554;5.9658;
513804418058282;43.4198;-34.8066;5.8804;
513804428058282;43.3222;-34.7700;6.0146;
513804438058282;43.1026;-34.6968;6.3074;
513804448058282;43.0294;-34.6480;6.3928;
513804458058282;42.9684;-34.6480;6.3806;
513804468058282;42.8830;-34.5870;6.5148;
513804478058282;42.8342;-34.5504;6.6246;
513804488058282;42.8708;-34.4772;6.7466;
513804498058282;42.8586;-34.3674;6.7710;
513804508058282;42.9318;-34.2942;6.7222;
513804518058282;43.1270;-34.1966;6.6124;
513804528058282;43.2490;-34.0990;6.5636;
513804538058282;43.2612;-33.9892;6.7466;
513804548058282;43.4320;-33.8794;6.8442;
513804558058282;43.5906;-33.7574;6.8198;
513804568058282;43.7370;-33.6110;6.8076;
513804578058282;43.8834;-33.5012;6.8686;
513804588058282;44.0054;-33.3914;6.9662;
513804598058282;44.1884;-33.3060;6.9662;
513804608058282;44.3958;-33.2084;7.0028;
513804618058282;44.6154;-33.0864;7.0028;
513804628058282;44.4690;-33.0010;7.3688;
513804638058282;44.2982;-32.9400;7.7470;
513804648058282;44.1274;-32.8790;8.1496;
513804658058282;44.1396;-32.8424;8.2472;
513804668058282;44.0786;-32.7570;8.4546;
513804678058282;44.0176;-32.6472;8.6986;
513804688058282;43.9322;-32.5618;8.8328;
513804698058282;43.9810;-32.4642;8.7718;
513804708058282;44.2372;-32.3422;8.4790;
513804718058282;44.3592;-32.2202;8.3326;
513804728058282;44.4690;-32.0982;8.1496;
513804738058282;44.3836;-31.9518;8.1984;
513804748058282;44.3836;-31.9030;8.1374;
513804758058282;44.3592;-31.8298;8.1740;
513804768058282;44.4080;-31.7078;8.1252;
513804778058282;44.3836;-31.5614;8.1496;
513804788058282;44.3104;-31.4760;8.2472;
513804798058282;44.2982;-31.4150;8.2594;
513804808058282;44.3592;-31.3418;8.2350;
513804818058282;44.4324;-31.2808;8.1740;
513804828058282;44.4202;-31.1710;8.1618;
513804838058282;44.4324;-31.0856;8.0642;
513804848058282;44.4202;-31.0124;8.0642;
513804858058282;44.3714;-31.0490;8.1740;
513804868058282;44.3348;-31.0612;8.1374;
513804878058282;44.3470;-31.0612;8.1374;
513804888058282;44.3348;-31.0612;8.1618;
513804898058282;44.3226;-31.0490;8.2228;
513804908058282;44.3348;-31.0124;8.2228;
513804918058282;44.4202;-31.0124;8.2350;
513804928058282;44.3836;-31.0490;8.2960;
513804938058282;44.3714;-31.0124;8.2838;
513804948058282;44.3470;-30.9636;8.3814;
513804958058282;44.4568;-30.9026;8.2472;
513804968058282;44.5178;-30.8416;8.1862;
513804978058282;44.6032;-30.7806;8.1496;
513804988058282;44.6398;-30.7684;8.2472;
513804998058282;44.7252;-30.6830;8.1130;
513805008058282;44.8472;-30.6098;7.9910;
513805018058282;44.9570;-30.5610;7.8690;
513805028058282;45.0790;-30.5488;7.7470;
513805038058282;45.1156;-30.4756;7.7592;
513805048058282;45.2132;-30.4390;7.6616;
513805058058282;45.2498;-30.4512;7.6128;
513805068058282;45.3474;-30.3536;7.6128;
513805078058282;45.3108;-30.3536;7.8202;
513805088058282;45.2864;-30.3536;7.9422;
513805098058282;45.2864;-30.3292;8.1130;
513805108058282;45.3596;-30.2682;8.0886;
513805118058282;45.3108;-30.2804;8.2350;
513805128058282;45.0912;-30.3414;8.5644;
513805138058282;44.8838;-30.3658;8.7718;
513805148058282;44.6764;-30.4390;8.9792;
513805158058282;44.5178;-30.4390;9.2110;
513805168058282;44.4446;-30.4390;9.3940;
513805178058282;44.3836;-30.4634;9.5282;
513805188058282;44.3714;-30.4634;9.6868;
513805198058282;44.4202;-30.4268;9.6990;
513805208058282;44.6032;-30.3414;9.5892;
513805218058282;44.8960;-30.2316;9.3940;
513805228058282;45.1766;-30.1828;9.2354;
513805238058282;45.2986;-30.1340;9.0768;
513805248058282;45.3474;-30.0608;8.9792;
513805258058282;45.4572;-29.9876;8.7840;
513805268058282;45.4084;-29.9022;8.8328;
513805278058282;45.3230;-29.8778;8.9792;
513805288058282;45.2742;-29.8534;9.1012;
513805298058282;45.2742;-29.8656;9.2354;
513805308058282;45.2620;-29.8656;9.2720;
513805318058282;45.2498;-29.8778;9.3208;
513805328058282;45.1644;-29.9144;9.5282;
513805338058282;45.0424;-29.9388;9.8088;
513805348058282;44.9204;-29.9876;9.9796;
513805358058282;44.8716;-30.0608;10.0650;
513805368058282;44.6886;-30.0730;10.2968;
513805378058282;44.5056;-30.1096;10.4066;
513805388058282;44.3104;-30.1218;10.5286;
513805398058282;44.1640;-30.1340;10.6384;
513805408058282;44.0786;-30.1340;10.5774;
513805418058282;43.9444;-30.1828;10.7116;
513805428058282;43.9078;-30.2316;10.6872;
513805438058282;43.7614;-30.2072;10.7970;
513805448058282;43.8590;-30.2560;10.5774;
513805458058282;43.7858;-30.2682;10.5896;
513805468058282;43.8346;-30.2560;10.5042;
513805478058282;43.8224;-30.2926;10.6140;
513805488058282;43.7980;-30.3048;10.6872;
513805498058282;43.8346;-30.2926;10.5164;
513805508058282;43.7248;-30.2560;10.5652;
513805518058282;43.8956;-30.2560;10.2724;
513805528058282;43.8712;-30.2438;10.2480;
513805538058282;43.9932;-30.2560;10.1382;
513805548058282;43.9200;-30.2682;10.2358;
513805558058282;43.9566;-30.3048;10.0528;
513805568058282;44.0176;-30.3292;9.9674;
513805578058282;44.0176;-30.3780;9.9918;
513805588058282;44.0542;-30.4634;9.9186;
513805598058282;44.0054;-30.5000;9.9796;
513805608058282;44.0542;-30.5732;9.8088;
513805618058282;44.0298;-30.6342;9.6380;
513805628058282;44.1640;-30.7196;9.3818;
513805638058282;44.2860;-30.7562;9.1256;
513805648058282;44.3348;-30.8172;8.8938;
513805658058282;44.3714;-30.9148;8.6986;
513805668058282;44.3836;-31.0002;8.5034;
513805678058282;44.3958;-31.0978;8.3082;
513805688058282;44.2860;-31.1710;8.3082;
513805698058282;44.1396;-31.2564;8.3570;
513805708058282;43.9566;-31.3540;8.3570;
513805718058282;43.8224;-31.4638;8.3204;
513805728058282;43.8468;-31.5614;8.1618;
513805738058282;43.8712;-31.5980;7.9422;
513805748058282;44.0420;-31.6224;7.6128;
513805758058282;44.1518;-31.6224;7.3200;
513805768058282;44.6032;-31.6346;6.6368;
513805778058282;44.6520;-31.6712;6.5270;
513805788058282;44.7984;-31.6834;6.2708;
513805798058282;45.0424;-31.6712;5.9658;
513805808058282;45.1888;-31.6224;5.7706;
513805818058282;45.3352;-31.6102;5.5998;
513805828058282;45.3718;-31.5980;5.5754;
513805838058282;45.3718;-31.6102;5.6364;
513805848058282;45.1766;-31.6102;5.9292;
513805858058282;45.3840;-31.6102;5.6608;
513805868058282;45.4816;-31.6102;5.5388;
513805878058282;45.4572;-31.6102;5.6730;
513805888058282;45.3962;-31.5858;5.7584;
513805898058282;45.3474;-31.5980;5.8316;
513805908058282;45.2986;-31.6102;5.9536;
513805918058282;45.2620;-31.6102;6.0024;
513805928058282;45.1644;-31.5980;6.1488;
513805938058282;45.1400;-31.5370;6.3196;
513805948058282;45.1522;-31.5126;6.4050;
513805958058282;45.1278;-31.4272;6.4294;
513805968058282;45.0302;-31.4882;6.5636;
513805978058282;45.1522;-31.4882;6.4904;
513805988058282;45.2864;-31.4394;6.3074;
513805998058282;45.3840;-31.4516;6.1488;
513806008058282;45.4938;-31.4150;6.0390;
513806018058282;45.5304;-31.4150;6.0024;
513806028058282;45.4816;-31.4028;5.9780;
513806038058282;45.5548;-31.4760;5.8072;
513806048058282;45.6524;-31.4272;5.6364;
513806058058282;45.6402;-31.4272;5.5998;
513806068058282;45.6890;-31.4882;5.4534;
513806078058282;45.7012;-32.4398;5.1972;
513806088058282;45.5304;-32.5374;5.2094;
513806098058282;45.5182;-32.6106;5.0630;
513806108058282;45.5792;-32.6350;4.9410;
513806118058282;45.4572;-32.5984;5.0386;
513806128058282;45.4206;-32.6228;5.0508;
513806138058282;45.3108;-32.5984;5.0508;
513806148058282;45.1156;-32.5862;5.1972;
513806158058282;44.9936;-32.5740;5.1972;
513806168058282;45.0668;-32.4886;5.0874;
513806178058282;45.1278;-32.4154;4.9410;
513806188058282;45.1034;-32.3910;4.8434;
513806198058282;45.1156;-32.3300;4.7580;
513806208058282;45.1278;-32.2324;4.5872;
513806218058282;45.1522;-32.1592;4.5628;
513806228058282;45.2254;-32.0250;4.5628;
513806238058282;45.2620;-31.8542;4.6116;
513806248058282;45.2620;-31.7444;4.8556;
513806258058282;45.0302;-31.6102;5.3192;
513806268058282;44.9448;-31.3662;5.6608;
513806278058282;44.9814;-31.2198;5.8560;
513806288058282;44.9814;-31.0490;6.2342;
513806298058282;44.9448;-30.8782;6.5514;
513806308058282;44.9692;-30.7440;6.6856;
513806318058282;45.0546;-30.5976;6.7954;
513806328058282;45.2132;-30.4024;6.7954;
513806338058282;45.5426;-30.1706;6.6612;
513806348058282;45.8476;-30.1096;6.5026;
513806358058282;46.0428;-29.9998;6.3440;
513806368058282;46.2990;-29.8778;6.1122;
513806378058282;46.5796;-29.7558;5.9414;
513806388058282;46.7748;-29.6460;5.8560;
513806398058282;46.9334;-29.6094;5.7950;
513806408058282;47.0432;-29.5850;5.7218;
513806418058282;47.1042;-29.6460;5.6852;
513806428058282;47.0676;-29.6460;5.7706;
513806438058282;46.9334;-29.6460;5.9536;
513806448058282;46.8236;-29.6826;6.1366;
513806458058282;46.7016;-29.7314;6.2342;
513806468058282;46.5918;-29.7680;6.3928;
513806478058282;46.5186;-29.7924;6.4294;
513806488058282;46.4454;-29.8290;6.4904;
513806498058282;46.4088;-29.7924;6.5392;
513806508058282;46.4454;-29.7802;6.4904;
513806518058282;46.3966;-29.7680;6.5392;
513806528058282;46.3966;-29.7802;6.5270;
513806538058282;46.4210;-29.7802;6.4538;
513806548058282;46.4820;-29.7924;6.4294;
513806558058282;46.5308;-29.8168;6.4416;
513806568058282;46.5918;-29.8046;6.3928;
513806578058282;46.5918;-29.8168;6.4172;
513806588058282;46.5674;-29.7558;6.4294;
513806598058282;46.7016;-29.7192;6.2708;
513806608058282;46.6772;-29.6826;6.3806;
513806618058282;46.7260;-29.6216;6.4050;
513806628058282;46.6528;-29.5850;6.5026;
513806638058282;46.4820;-29.4996;6.8076;
513806648058282;46.2746;-29.4386;7.0760;
513806658058282;46.0550;-29.3410;7.3566;
513806668058282;45.8232;-29.3288;7.6616;
513806678058282;45.7134;-29.2800;7.9544;
513806688058282;45.6768;-29.1580;7.9910;
513806698058282;45.4694;-29.1214;8.3326;
513806708058282;45.3596;-29.0482;8.5034;
513806718058282;45.3962;-28.9994;8.4668;
513806728058282;45.4084;-28.9384;8.5156;
513806738058282;45.6524;-28.9384;8.3204;
513806748058282;45.8598;-28.8774;8.0642;
513806758058282;45.9818;-28.8652;7.9056;
513806768058282;46.0428;-28.8774;7.8080;
513806778058282;46.0916;-28.8896;7.6616;
513806788058282;46.1282;-28.8896;7.6250;
513806798058282;46.0672;-28.8774;7.6372;
513806808058282;46.0672;-28.9018;7.5396;
513806818058282;45.9452;-28.9018;7.5884;
513806828058282;45.7988;-28.9506;7.7592;
513806838058282;45.7378;-28.9872;7.7348;
513806848058282;45.6890;-29.0604;7.7104;
513806858058282;45.7866;-29.0970;7.5762;
513806868058282;45.8964;-29.1214;7.3566;
513806878058282;45.9696;-29.1702;7.2956;
513806888058282;45.9574;-29.2068;7.3444;
513806898058282;45.9574;-29.2434;7.3566;
513806908058282;46.0184;-29.2922;7.2224;
513806918058282;46.0306;-29.2922;7.3078;
513806928058282;46.0428;-29.2312;7.3810;
513806938058282;45.9940;-29.1946;7.4664;
513806948058282;45.9818;-29.1580;7.6250;
513806958058282;45.8598;-29.1336;7.7348;
513806968058282;45.9940;-29.0604;7.6860;
513806978058282;46.0306;-29.0238;7.6616;
513806988058282;46.0794;-28.9628;7.8324;
513806998058282;46.1282;-28.9384;7.9422;
513807008058282;46.0672;-28.9262;7.9910;
513807018058282;46.0428;-28.9018;8.0276;
513807028058282;45.9940;-28.8774;8.0520;
513807038058282;46.0916;-28.8408;7.9178;
513807048058282;45.9940;-28.8164;8.0642;
513807058058282;45.9330;-28.7920;8.1130;
513807068058282;45.9696;-28.7188;7.9788;
513807078058282;46.0062;-28.6456;7.8934;
513807088058282;46.0672;-28.5602;7.8324;
513807098058282;46.2258;-28.5480;7.6982;
513807108058282;46.3844;-28.5114;7.5396;
513807118058282;46.5308;-28.5236;7.4542;
513807128058282;46.6650;-28.5236;7.2834;
513807138058282;46.6894;-28.4748;7.2712;
513807148058282;46.5796;-28.4626;7.4908;
513807158058282;46.5064;-28.4382;7.6128;
513807168058282;46.4942;-28.4504;7.7470;
513807178058282;46.3966;-28.4138;7.9666;
513807188058282;46.3356;-28.3772;8.1374;
513807198058282;46.3356;-28.3406;8.1984;
513807208058282;46.2502;-28.2796;8.2960;
513807218058282;46.1892;-28.2674;8.4790;
513807228058282;46.2014;-28.2552;8.5644;
513807238058282;46.0672;-28.2552;8.6498;
513807248058282;46.0550;-28.2430;8.6986;
513807258058282;46.0550;-28.2186;8.6986;
513807268058282;46.0184;-28.2186;8.8206;
513807278058282;45.9086;-28.1576;8.9792;
513807288058282;45.8232;-28.1698;9.1134;
513807298058282;45.8964;-28.1332;9.1134;
513807308058282;45.9696;-28.1210;9.0402;
513807318058282;46.1282;-28.0722;8.9304;
513807328058282;46.1160;-28.0478;9.0158;
513807338058282;46.0916;-28.0478;9.0768;
513807348058282;46.1526;-28.0356;8.9670;
513807358058282;46.2014;-28.0600;8.8450;
513807368058282;46.3722;-28.0600;8.7108;
513807378058282;46.4210;-28.0722;8.6742;
513807388058282;46.4942;-28.0844;8.6132;
513807398058282;46.6040;-28.1332;8.4790;
513807408058282;46.7260;-28.1454;8.3448;
513807418058282;46.9334;-28.1332;8.1496;
513807428058282;46.9456;-28.1210;8.1984;
513807438058282;46.9822;-28.0600;8.2228;
513807448058282;47.0066;-28.0112;8.1252;
513807458058282;47.1042;-27.9746;8.0154;
513807468058282;47.1408;-27.9380;7.9300;
513807478058282;47.0920;-27.8648;8.1130;
513807488058282;47.1286;-27.8404;8.0398;
513807498058282;47.1408;-27.7794;8.1374;
513807508058282;47.1896;-27.7184;8.1130;
513807518058282;47.2628;-27.6940;8.1496;
513807528058282;47.2994;-27.6696;8.2838;
513807538058282;47.1896;-27.6452;8.4790;
513807548058282;47.1652;-27.5964;8.6376;
513807558058282;47.0920;-27.5964;8.7596;
513807568058282;47.0798;-27.5232;8.8572;
513807578058282;46.9334;-27.5354;8.9548;
513807588058282;46.8968;-27.5110;9.0768;
513807598058282;46.8480;-27.5110;9.1988;
513807608058282;46.8358;-27.4866;9.2354;
513807618058282;46.9700;-27.4378;9.0768;
513807628058282;46.9456;-27.4256;9.1012;
513807638058282;47.0066;-27.3890;8.9914;
513807648058282;46.9578;-27.4012;9.0768;
513807658058282;46.9212;-27.3402;9.1500;
513807668058282;46.9334;-27.3524;9.1134;
513807678058282;46.9090;-27.2914;9.2110;
513807688058282;46.8114;-27.3524;9.3086;
513807698058282;46.5552;-27.4134;9.6990;
513807708058282;46.3844;-27.4622;9.9552;
513807718058282;46.2136;-27.5110;10.3090;
513807728058282;45.9818;-27.5842;10.6018;
513807738058282;45.8232;-27.6940;10.8824;
513807748058282;45.4938;-27.7550;11.3094;
513807758058282;45.2376;-27.9136;11.4192;
513807768058282;45.0790;-27.9624;11.5900;
513807778058282;45.1034;-28.0234;11.4924;
513807788058282;45.0790;-28.1088;11.4070;
513807798058282;45.0424;-28.2186;11.3338;
513807808058282;45.1522;-28.3284;11.1264;
513807818058282;45.3230;-28.4260;10.8214;
513807828058282;45.4816;-28.5602;10.5652;
513807838058282;45.5182;-28.6578;10.5042;
513807848058282;45.4572;-28.7798;10.5774;
513807858058282;45.2376;-28.9506;10.7848;
513807868058282;45.0546;-29.0970;10.9800;
513807878058282;44.8838;-29.2556;11.1752;
513807888058282;44.6642;-29.3776;11.4680;
513807898058282;44.3470;-29.4874;11.8584;
513807908058282;44.0908;-29.6216;12.0780;
513807918058282;43.8346;-29.7070;12.2976;
513807928058282;43.7736;-29.8046;12.2976;
513807938058282;43.7248;-29.9022;12.2976;
513807948058282;43.7614;-29.9876;12.2610;
513807958058282;43.7126;-30.1340;12.1756;
513807968058282;43.6760;-30.2926;12.0170;
513807978058282;43.7248;-30.4512;11.8096;
513807988058282;43.7614;-30.5488;11.7364;
513807998058282;43.7614;-30.6952;11.7120;
513808008058282;43.6638;-30.8538;11.8096;
513808018058282;43.6516;-30.9514;11.6876;
513808028058282;43.5296;-31.0368;11.7608;
513808038058282;43.4320;-31.0612;11.8462;
513808048058282;43.3954;-31.0246;11.8462;
513808058058282;43.3344;-31.0490;11.8828;
513808068058282;43.2368;-31.1222;11.8828;
513808078058282;43.3710;-31.1832;11.6998;
513808088058282;43.4930;-31.2320;11.3704;
513808098058282;43.6028;-31.2808;11.2240;
513808108058282;43.7736;-31.3174;10.9800;
513808118058282;43.8590;-31.3540;10.7604;
513808128058282;43.9566;-31.4516;10.6018;
513808138058282;44.0664;-31.5126;10.4554;
513808148058282;44.1274;-31.5492;10.3944;
513808158058282;44.0054;-31.6224;10.3456;
513808168058282;44.0664;-31.6468;10.2846;
513808178058282;44.0420;-31.7444;10.2724;
513808188058282;43.9200;-31.8420;10.2724;
513808198058282;43.9932;-31.9396;10.1748;
513808208058282;43.9444;-31.9884;10.1748;
513808218058282;43.8834;-32.0616;10.1260;
513808228058282;44.0420;-32.1104;9.7966;
513808238058282;44.1518;-32.0860;9.7722;
513808248058282;44.1030;-32.1348;9.7722;
513808258058282;44.0542;-32.1348;9.7112;
513808268058282;44.1640;-32.1226;9.6136;
513808278058282;44.2128;-32.0738;9.4672;
513808288058282;44.2372;-32.0738;9.4062;
513808298058282;44.2494;-32.0006;9.4306;
513808308058282;44.1884;-31.9396;9.5160;
513808318058282;44.1762;-31.9396;9.5892;
513808328058282;44.1762;-31.8542;9.6258;
513808338058282;44.1884;-31.7688;9.6136;
513808348058282;43.9566;-31.7322;9.9308;
513808358058282;43.9932;-31.6834;9.9308;
513808368058282;44.0908;-31.6224;9.8454;
513808378058282;44.1396;-31.6224;9.7478;
513808388058282;44.0664;-31.6102;9.8332;
513808398058282;43.9810;-31.5492;9.7722;
513808408058282;43.9078;-31.5736;9.8088;
513808418058282;43.9444;-31.5980;9.8210;
513808428058282;44.1030;-31.5980;9.5526;
513808438058282;44.0176;-31.6224;9.6014;
513808448058282;44.0542;-31.5980;9.5160;
513808458058282;44.0176;-31.6102;9.5282;
513808468058282;44.0420;-31.6468;9.5160;
513808478058282;44.2250;-31.7200;9.3208;
513808488058282;44.2494;-31.7444;9.2476;
513808498058282;44.2616;-31.7566;9.1500;
513808508058282;44.2860;-31.7810;9.0158;
513808518058282;44.2738;-31.8298;9.0524;
513808528058282;44.2006;-31.8786;9.1134;
513808538058282;44.2982;-31.8786;8.9548;
513808548058282;44.4324;-31.8542;8.7596;
513808558058282;44.3470;-31.7932;8.7718;
513808568058282;44.3958;-31.7444;8.7352;
513808578058282;44.4324;-31.7932;8.7230;
513808588058282;44.5056;-31.7932;8.6742;
513808598058282;44.5910;-31.7688;8.5888;
513808608058282;44.4934;-31.7810;8.6986;
513808618058282;44.3714;-31.7810;8.8572;
513808628058282;44.3104;-31.7688;8.9792;
513808638058282;44.3470;-31.8054;8.9304;
513808648058282;44.4446;-31.7810;8.8450;
513808658058282;44.3958;-31.7566;8.8572;
513808668058282;44.3470;-31.7078;8.9426;
513808678058282;44.4202;-31.6468;8.9182;
513808688058282;44.5666;-31.5980;8.7962;
513808698058282;44.6520;-31.5370;8.7596;
513808708058282;44.6398;-31.5248;8.7596;
513808718058282;44.7252;-31.4760;8.7108;
513808728058282;44.7862;-31.4394;8.7108;
513808738058282;44.8716;-31.3662;8.7596;
513808748058282;45.0668;-31.3174;8.6010;
513808758058282;45.2010;-31.3662;8.5034;
513808768058282;45.2498;-31.3784;8.4912;
513808778058282;45.2986;-31.4272;8.4546;
513808788058282;45.3718;-31.4150;8.4058;
513808798058282;45.3352;-31.4272;8.5034;
513808808058282;45.3108;-31.4760;8.5278;
513808818058282;45.3230;-31.5248;8.3936;
513808828058282;45.2132;-31.6468;8.5278;
513808838058282;45.1034;-31.6346;8.5278;
513808848058282;45.1278;-31.6468;8.4302;
513808858058282;45.2376;-31.6834;8.2106;
513808868058282;45.2254;-31.7444;8.1252;
513808878058282;45.2620;-31.7810;8.0032;
513808888058282;45.2254;-31.8542;7.9056;
513808898058282;45.1522;-31.8786;7.9544;
513808908058282;45.2254;-31.8908;7.8202;
513808918058282;45.0912;-31.9518;7.9300;
513808928058282;45.0546;-32.0006;8.0154;
513808938058282;44.9570;-32.0372;8.0764;
513808948058282;44.8960;-32.0738;8.1862;
513808958058282;44.8594;-32.0982;8.1740;
513808968058282;44.8472;-32.1104;8.2960;
513808978058282;44.8838;-32.1592;8.3082;
513808988058282;44.7740;-32.1958;8.4546;
513808998058282;44.7984;-32.2324;8.5034;
513809008058282;44.7130;-32.2812;8.6254;
513809018058282;44.6276;-32.3178;8.7718;
513809028058282;44.6276;-32.3666;8.7230;
513809038058282;44.4812;-32.4398;8.9670;
513809048058282;44.4812;-32.4398;8.8694;
513809058058282;44.4446;-32.4764;8.8816;
513809068058282;44.4446;-32.5130;8.9182;
513809078058282;44.4812;-32.5862;8.8328;
513809088058282;44.3592;-32.6106;8.8084;
513809098058282;44.3592;-32.6350;8.8206;
513809108058282;44.2982;-32.6716;8.9304;
513809118058282;44.2860;-32.6716;8.9304;
513809128058282;44.1518;-32.7082;9.0768;
513809138058282;44.0664;-32.7326;9.1500;
513809148058282;44.0420;-32.7326;9.1256;
513809158058282;43.7858;-32.7204;9.3940;
513809168058282;43.6394;-32.6960;9.6502;
513809178058282;43.3710;-32.7204;9.8698;
513809188058282;43.2002;-32.6960;10.0162;
513809198058282;43.1148;-32.6716;10.1260;
513809208058282;42.9562;-32.6350;10.3090;
513809218058282;42.8464;-32.6228;10.4066;
513809228058282;42.7610;-32.5740;10.5042;
513809238058282;42.8586;-32.5496;10.3822;
513809248058282;43.0416;-32.5740;10.1992;
513809258058282;43.2490;-32.4886;10.0162;
513809268058282;43.3710;-32.4642;9.9674;
513809278058282;43.5540;-32.5130;9.7356;
513809288058282;43.7492;-32.5130;9.5160;
513809298058282;43.8346;-32.4398;9.3696;
513809308058282;43.8346;-32.4398;9.2598;
513809318058282;43.9810;-32.4154;9.1378;
513809328058282;44.1274;-32.3666;8.9670;
513809338058282;44.2860;-32.4032;8.7840;
513809348058282;44.3836;-32.3788;8.6376;
513809358058282;44.3592;-32.3422;8.6132;
513809368058282;44.3470;-32.3422;8.6620;
513809378058282;44.3836;-32.3422;8.6132;
513809388058282;44.5056;-32.3788;8.5278;
513809398058282;44.5178;-32.3422;8.4668;
513809408058282;44.4812;-32.3788;8.4790;
513809418058282;44.4202;-32.3300;8.5522;
513809428058282;44.4446;-32.3300;8.5278;
513809438058282;44.3226;-32.3056;8.6742;
513809448058282;44.3104;-32.2568;8.7718;
513809458058282;44.1640;-32.3056;8.9670;
513809468058282;44.0298;-32.2446;9.1744;
513809478058282;43.8834;-32.2446;9.4428;
513809488058282;43.7248;-32.2080;9.5892;
513809498058282;43.5784;-32.1958;9.8332;
513809508058282;43.4320;-32.2324;9.9918;
513809518058282;43.3588;-32.2080;10.1016;
513809528058282;43.3710;-32.1714;10.0650;
513809538058282;43.5052;-32.1226;9.9674;
513809548058282;43.6882;-32.0860;9.7478;
513809558058282;43.8590;-32.0738;9.4916;
513809568058282;44.0664;-32.0616;9.2476;
513809578058282;44.2494;-32.0494;8.9426;
513809588058282;44.3836;-32.0250;8.7108;
513809598058282;44.6886;-32.0250;8.3814;
513809608058282;44.7740;-32.0250;8.2594;
513809618058282;44.9204;-31.9884;8.0154;
513809628058282;44.9204;-31.9884;8.0032;
513809638058282;44.8716;-32.0006;8.0642;
513809648058282;44.7862;-31.9762;8.1618;
513809658058282;44.8106;-31.9518;8.1984;
513809668058282;44.8228;-31.9274;8.2838;
513809678058282;44.7740;-31.9396;8.3204;
513809688058282;44.7130;-31.9762;8.3082;
513809698058282;44.4690;-32.0006;8.5522;
513809708058282;44.4202;-32.0372;8.5766;
513809718058282;44.5056;-32.0128;8.4912;
513809728058282;44.6032;-32.0006;8.4058;
513809738058282;44.5056;-32.0250;8.4424;
513809748058282;44.4690;-32.0250;8.3936;
513809758058282;44.3104;-32.0128;8.5522;
513809768058282;44.3226;-32.0128;8.6254;
513809778058282;44.4934;-31.9884;8.4668;
513809788058282;44.5300;-31.9396;8.4180;
513809798058282;44.3592;-31.8908;8.6132;
513809808058282;44.1762;-31.9030;8.8084;
513809818058282;44.1152;-31.8664;8.9060;
513809828058282;44.1274;-31.8298;8.9182;
513809838058282;44.1762;-31.8176;8.8816;
513809848058282;44.1030;-31.7810;8.8450;
513809858058282;44.0908;-31.7322;8.8816;
513809868058282;44.0420;-31.6712;8.9670;
513809878058282;44.1274;-31.6834;8.8328;
513809888058282;44.2860;-31.6102;8.6864;
513809898058282;44.6642;-31.5736;8.2106;
513809908058282;44.7008;-31.5614;8.0764;
513809918058282;44.7984;-31.5004;8.0276;
513809928058282;44.7862;-31.5004;8.0886;
513809938058282;44.6886;-31.5004;8.1740;
513809948058282;44.5910;-31.5370;8.3204;
513809958058282;44.4812;-31.5004;8.5156;
513809968058282;44.3104;-31.5492;8.7352;
513809978058282;43.8956;-31.5858;9.1744;
513809988058282;43.8468;-31.5980;9.2964;
513809998058282;43.8224;-31.6102;9.2842;
513810008058282;43.9444;-31.5492;9.1866;
513810018058282;43.9200;-31.5370;9.1988;
513810028058282;44.0054;-31.5614;9.0158;
513810038058282;44.0786;-31.5614;8.8938;
513810048058282;44.3104;-31.5370;8.5644;
513810058058282;44.4690;-31.5126;8.3936;
513810068058282;44.5666;-31.4516;8.3082;
513810078058282;44.6398;-31.4638;8.2350;
513810088058282;44.7130;-31.4760;8.0642;
513810098058282;44.8716;-31.5004;7.8934;
513810108058282;44.9936;-31.4760;7.7470;
513810118058282;44.9936;-31.4882;7.7470;
513810128058282;45.0058;-31.4638;7.7592;
513810138058282;44.8838;-31.5126;7.8446;
513810148058282;44.8472;-31.5492;7.9178;
513810158058282;44.8594;-31.5370;7.7104;
513810168058282;44.6764;-31.5858;7.7958;
513810178058282;44.6764;-31.6102;7.6982;
513810188058282;44.4812;-31.6590;7.7836;
513810198058282;44.5056;-31.6224;7.8202;
513810208058282;44.3104;-31.6468;7.9300;
513810218058282;44.2616;-31.5736;8.0154;
513810228058282;44.1762;-31.5370;8.0764;
513810238058282;44.0176;-31.5370;8.3326;
513810248058282;44.0176;-31.5004;8.5278;
513810258058282;43.9200;-31.4638;8.7230;
513810268058282;43.9932;-31.4394;8.7718;
513810278058282;43.9810;-31.4638;8.7718;
513810288058282;44.0176;-31.4150;8.7962;
513810298058282;44.1030;-31.4272;8.6498;
513810308058282;44.0786;-31.4394;8.6864;
513810318058282;44.0908;-31.4272;8.6986;
513810328058282;44.0786;-31.3906;8.6742;
513810338058282;44.1030;-31.3296;8.6742;
513810348058282;44.1030;-31.2686;8.6864;
513810358058282;44.0298;-31.2564;8.6620;
513810368058282;44.0054;-31.2930;8.7352;
513810378058282;43.9932;-31.2686;8.8694;
513810388058282;43.9932;-31.2442;8.8206;
513810398058282;44.0298;-31.2564;8.8572;
513810408058282;44.1762;-31.2320;8.6864;
513810418058282;44.2494;-31.2198;8.5522;
513810428058282;44.3226;-31.1588;8.4546;
513810438058282;44.4446;-31.1466;8.2716;
513810448058282;44.4568;-31.0856;8.1984;
513810458058282;44.3958;-31.0368;8.1740;
513810468058282;44.4934;-31.0246;8.0032;
513810478058282;44.6032;-31.0246;7.8324;
513810488058282;44.6276;-31.0002;7.7958;
513810498058282;44.6398;-31.0124;7.7592;
513810508058282;44.7008;-31.0368;7.6372;
513810518058282;44.7130;-31.0246;7.7226;
513810528058282;44.7618;-30.9880;7.6738;
513810538058282;44.7496;-30.9880;7.6738;
513810548058282;44.5422;-30.9392;7.9910;
513810558058282;44.2982;-30.8660;8.3204;
513810568058282;43.9688;-30.8416;8.6620;
513810578058282;43.7248;-30.8172;9.0036;
513810588058282;43.4320;-30.8050;9.3940;
513810598058282;43.1270;-30.7684;9.7112;
513810608058282;42.8830;-30.7684;10.0650;
513810618058282;42.7854;-30.7684;10.2602;
513810628058282;42.7366;-30.7684;10.3090;
513810638058282;42.6756;-30.7562;10.2724;
513810648058282;42.5902;-30.7806;10.3700;
513810658058282;42.5780;-30.7562;10.3090;
513810668058282;42.4560;-30.7684;10.3822;
513810678058282;42.6146;-30.7806;10.1504;
513810688058282;42.8708;-30.7440;9.8210;
513810698058282;43.0416;-30.7074;9.5282;
513810708058282;43.2612;-30.6952;9.1744;
513810718058282;43.4808;-30.6098;8.9182;
513810728058282;43.7614;-30.5976;8.5644;
513810738058282;43.9322;-30.5488;8.2960;
513810748058282;44.1518;-30.4878;8.1008;
513810758058282;44.1274;-30.4146;8.0520;
513810768058282;44.0298;-30.3902;8.0764;
513810778058282;44.0054;-30.3048;8.0642;
513810788058282;43.9688;-30.2316;8.0642;
513810798058282;43.8956;-30.2072;8.0642;
513810808058282;43.8834;-30.0730;7.9788;
513810818058282;43.9200;-30.0364;7.9666;
513810828058282;43.9322;-29.9510;7.8812;
513810838058282;44.0054;-29.8778;7.7104;
513810848058282;44.0664;-29.8046;7.5884;
513810858058282;43.9932;-29.8168;7.5030;
513810868058282;43.9078;-29.7680;7.6006;
513810878058282;43.7980;-29.7070;7.6738;
513810888058282;43.6516;-29.6582;7.8080;
513810898058282;43.4564;-29.5362;7.9666;
513810908058282;43.3466;-29.4874;8.0886;
513810918058282;43.3954;-29.3776;8.1130;
513810928058282;43.3954;-29.2800;8.1008;
513810938058282;43.3588;-29.1092;8.2106;
513810948058282;43.3466;-28.9872;8.1862;
513810958058282;43.3954;-28.8408;8.1008;
513810968058282;43.4320;-28.6944;8.0642;
513810978058282;43.5418;-28.5724;7.9544;
513810988058282;43.6150;-28.4260;7.8080;
513810998058282;43.5540;-28.3040;7.9056;
513811008058282;43.4442;-28.2186;7.9300;
513811018058282;43.3954;-28.1454;7.9910;
513811028058282;43.4320;-28.0600;8.0276;
513811038058282;43.3466;-28.0478;8.1130;
513811048058282;43.3588;-28.0112;8.1008;
513811058058282;43.3588;-27.9868;8.0642;
513811068058282;43.2490;-27.9624;8.1496;
513811078058282;43.1758;-27.9258;8.3082;
513811088058282;43.0660;-27.8770;8.5766;
513811098058282;42.9928;-27.8404;8.6986;
513811108058282;42.9074;-27.8038;8.8572;
513811118058282;43.0172;-27.6940;8.8938;
513811128058282;42.9806;-27.6818;9.0280;
513811138058282;42.9196;-27.6574;9.2110;
513811148058282;42.9562;-27.6330;9.3208;
513811158058282;42.9806;-27.6330;9.1500;
513811168058282;43.1880;-27.5720;8.9426;
513811178058282;43.2856;-27.5720;8.8450;
513811188058282;43.2612;-27.5476;8.6864;
513811198058282;43.3222;-27.5598;8.5888;
513811208058282;43.4442;-27.5110;8.4790;
513811218058282;43.4198;-27.5232;8.5644;
513811228058282;43.4320;-27.4988;8.6254;
513811238058282;43.4198;-27.4866;8.7840;
513811248058282;43.2856;-27.5232;9.0402;
513811258058282;43.2002;-27.5110;9.2720;
513811268058282;43.2490;-27.5232;9.4794;
513811278058282;43.1392;-27.5598;9.7722;
513811288058282;43.0050;-27.6330;10.0894;
513811298058282;42.9928;-27.6208;10.2724;
513811308058282;42.9562;-27.6452;10.3212;
513811318058282;43.0050;-27.6818;10.3212;
513811328058282;43.1148;-27.7428;10.2114;
513811338058282;43.3344;-27.8038;10.0162;
513811348058282;43.4198;-27.8526;9.9186;
513811358058282;43.4320;-27.9136;9.9186;
513811368058282;43.4198;-27.9258;9.9918;
513811378058282;43.3588;-28.0234;9.9918;
513811388058282;43.3710;-28.0478;10.1016;
513811398058282;43.4686;-28.1210;10.0772;
513811408058282;43.4930;-28.1698;10.1626;
513811418058282;43.4808;-28.2430;10.2602;
513811428058282;43.4686;-28.3528;10.3456;
513811438058282;43.5906;-28.3894;10.2602;
513811448058282;43.8834;-28.4382;9.8576;
513811458058282;44.2250;-28.4992;9.4428;
513811468058282;44.4568;-28.5602;9.2476;
513811478058282;44.4202;-28.6578;9.3330;
513811488058282;44.2982;-28.7310;9.5526;
513811498058282;44.1884;-28.7676;9.7600;
513811508058282;43.9688;-28.8286;10.1504;
513811518058282;44.0298;-28.8408;10.2358;
513811528058282;43.9566;-28.8774;10.4554;
513811538058282;43.8712;-28.9262;10.6872;
513811548058282;43.8102;-29.0116;10.7970;
513811558058282;43.8102;-29.0604;10.9068;
513811568058282;44.0664;-29.0970;10.6506;
513811578058282;44.3226;-29.1336;10.4310;
513811588058282;44.6520;-29.1702;10.0528;
513811598058282;44.7740;-29.2800;9.8942;
513811608058282;44.8228;-29.3898;9.7966;
513811618058282;44.8716;-29.4752;9.8088;
513811628058282;44.9814;-29.5240;9.6502;
513811638058282;45.1278;-29.5728;9.3208;
513811648058282;45.2254;-29.6216;9.1988;
513811658058282;45.2742;-29.7070;9.0524;
513811668058282;45.3840;-29.7680;8.8694;
513811678058282;45.2864;-29.8412;8.9792;
513811688058282;45.2742;-29.9388;9.0402;
513811698058282;45.4084;-29.9876;8.7596;
513811708058282;45.4694;-30.0852;8.5766;
513811718058282;45.2498;-30.1462;8.8694;
513811728058282;45.0668;-30.2316;9.0524;
513811738058282;44.8716;-30.3170;9.2232;
513811748058282;44.7252;-30.4146;9.3940;
513811758058282;44.6154;-30.5122;9.4916;
513811768058282;44.5422;-30.5854;9.6136;
513811778058282;44.4080;-30.6220;9.8088;
513811788058282;44.2616;-30.6586;10.0894;
513811798058282;44.3714;-30.7318;10.0650;
513811808058282;44.3958;-30.7928;10.0406;
513811818058282;44.2982;-30.8294;10.1870;
513811828058282;44.2616;-30.8294;10.2236;
513811838058282;44.2860;-30.8782;10.1870;
513811848058282;44.1396;-30.9636;10.3456;
513811858058282;43.9566;-31.0124;10.5652;
513811868058282;43.8224;-31.0612;10.6872;
513811878058282;43.7370;-31.1100;10.6994;
513811888058282;43.6638;-31.1344;10.7848;
513811898058282;43.7736;-31.2076;10.7116;
513811908058282;43.6638;-31.3174;10.8336;
513811918058282;43.5296;-31.3540;10.9068;
513811928058282;43.6516;-31.3906;10.6872;
513811938058282;43.6516;-31.4760;10.6506;
513811948058282;43.6516;-31.5370;10.6262;
513811958058282;43.6760;-31.5858;10.5042;
513811968058282;43.7126;-31.6956;10.3944;
513811978058282;43.7492;-31.7078;10.2114;
513811988058282;43.8590;-31.7566;9.9552;
513811998058282;43.9566;-31.7810;9.7844;
513812008058282;43.9078;-31.8298;9.8454;
513812018058282;43.9444;-31.8420;9.7112;
513812028058282;44.0298;-31.8664;9.5648;
513812038058282;44.0542;-31.8786;9.6014;
513812048058282;44.0054;-31.8664;9.6258;
513812058058282;43.9688;-31.9152;9.6746;
513812068058282;43.9322;-31.8786;9.7844;
513812078058282;43.9810;-31.8908;9.7722;
513812088058282;44.0054;-31.8542;9.6868;
513812098058282;44.1640;-31.8786;9.5160;
513812108058282;44.2128;-31.8786;9.4794;
513812118058282;44.2982;-31.8908;9.3086;
513812128058282;44.4934;-31.8908;9.1744;
513812138058282;44.5422;-31.8908;9.1012;
513812148058282;44.6642;-31.9640;8.8694;
513812158058282;44.7008;-32.0250;8.7108;
513812168058282;44.8472;-32.0982;8.4668;
513812178058282;44.8228;-32.1470;8.4058;
513812188058282;45.0424;-32.1714;8.0764;
513812198058282;45.1400;-32.2568;7.8934;
513812208058282;45.2010;-32.2812;7.6494;
513812218058282;45.2620;-32.3544;7.5884;
513812228058282;45.1888;-32.3788;7.6494;
513812238058282;45.2498;-32.4032;7.6372;
513812248058282;45.3352;-32.4154;7.4420;
513812258058282;45.4572;-32.4764;7.2468;
513812268058282;45.4572;-32.5496;7.2224;
513812278058282;45.5060;-32.5496;7.1980;
513812288058282;45.3474;-32.6228;7.3566;
513812298058282;45.2742;-32.6716;7.4176;
513812308058282;45.2132;-32.7204;7.5518;
513812318058282;45.1278;-32.7570;7.6372;
513812328058282;44.8106;-32.7936;8.0520;
513812338058282;44.4690;-32.7570;8.5522;
513812348058282;44.1396;-32.7204;8.9914;
513812358058282;43.7492;-32.8058;9.4184;
513812368058282;43.6272;-32.7936;9.6258;
513812378058282;43.5540;-32.7814;9.6502;
513812388058282;43.4808;-32.8058;9.6746;
513812398058282;43.4076;-32.8180;9.7966;
513812408058282;43.4320;-32.8180;9.7844;
513812418058282;43.4564;-32.9034;9.7234;
513812428058282;43.4808;-32.9644;9.7112;
513812438058282;43.4808;-33.0132;9.6258;
513812448058282;43.4564;-33.0864;9.6258;
513812458058282;43.4442;-33.1230;9.6014;
513812468058282;43.4442;-33.1352;9.6014;
513812478058282;43.4320;-33.1718;9.5282;
513812488058282;43.5296;-33.1962;9.3330;
513812498058282;43.6272;-33.2450;9.1500;
513812508058282;43.6150;-33.2694;9.0768;
513812518058282;43.7370;-33.1962;8.9182;
513812528058282;43.8468;-33.1474;8.7962;
513812538058282;43.9688;-33.1230;8.6010;
513812548058282;44.1640;-33.1108;8.3814;
513812558058282;44.1884;-33.0376;8.2960;
513812568058282;44.1640;-32.9522;8.3570;
513812578058282;44.1762;-32.8058;8.3692;
513812588058282;44.3104;-32.7570;8.1862;
513812598058282;44.3470;-32.7082;8.2594;
513812608058282;44.3348;-32.6106;8.1862;
513812618058282;44.2494;-32.5252;8.2960;
513812628058282;44.5178;-32.4032;7.9910;
513812638058282;44.5910;-32.3178;7.9910;
513812648058282;44.7008;-32.2812;7.9910;
513812658058282;44.7496;-32.2324;8.0276;
513812668058282;44.7374;-32.0982;8.1130;
513812678058282;44.8106;-32.0372;7.9544;
513812688058282;44.9448;-32.0006;7.8934;
513812698058282;45.1522;-31.9396;7.7836;
513812708058282;44.8960;-31.8786;8.1618;
513812718058282;44.9814;-31.8298;8.1252;
513812728058282;45.0912;-31.7810;8.0154;
513812738058282;45.1278;-31.6956;7.9422;
513812748058282;45.0546;-31.6834;8.1252;
513812758058282;44.9570;-31.5614;8.3570;
513812768058282;44.7984;-31.5492;8.6376;
513812778058282;44.5544;-31.5126;8.9670;
513812788058282;44.3714;-31.5126;9.1744;
513812798058282;44.1884;-31.4882;9.3696;
513812808058282;44.0054;-31.4150;9.6624;
513812818058282;43.7980;-31.4150;9.9430;
513812828058282;43.8346;-31.4150;9.8820;
513812838058282;43.9078;-31.3906;9.8088;
513812848058282;43.9932;-31.3296;9.6746;
513812858058282;44.0664;-31.3052;9.5160;
513812868058282;44.1640;-31.2076;9.3818;
513812878058282;44.1884;-31.1954;9.5038;
513812888058282;44.1396;-31.2076;9.5038;
513812898058282;44.3714;-31.1344;9.2232;
513812908058282;44.5910;-31.0734;8.9670;
513812918058282;44.6886;-31.0368;8.8450;
513812928058282;44.8716;-30.9880;8.6620;
513812938058282;44.9570;-30.8904;8.6010;
513812948058282;45.1644;-30.8904;8.4180;
513812958058282;45.3352;-30.8172;8.1496;
513812968058282;45.5426;-30.7196;7.9178;
513812978058282;45.5548;-30.6586;7.9544;
513812988058282;45.5060;-30.6342;8.0764;
513812998058282;45.5182;-30.5854;8.1374;
513813008058282;45.4694;-30.5610;8.2350;
513813018058282;45.5304;-30.5488;8.2106;
513813028058282;45.5548;-30.4634;8.1130;
513813038058282;45.6524;-30.4146;8.0276;
513813048058282;45.6280;-30.3780;8.0398;
513813058058282;45.6524;-30.3414;7.9788;
513813068058282;45.6402;-30.2926;7.9788;
513813078058282;45.5792;-30.2804;8.0032;
513813088058282;45.5670;-30.2682;8.0276;
513813098058282;45.5792;-30.2072;8.0276;
513813108058282;45.4938;-30.1828;8.2228;
513813118058282;45.3840;-30.0974;8.4058;
513813128058282;45.3718;-30.0730;8.4912;
513813138058282;45.4572;-30.0120;8.4546;
513813148058282;45.6646;-29.9388;8.2960;
513813158058282;45.8476;-29.9022;8.1740;
513813168058282;45.9574;-29.8168;8.0276;
513813178058282;46.0306;-29.7924;8.0154;
513813188058282;45.8964;-29.7558;8.1130;
513813198058282;45.7500;-29.7802;8.2716;
513813208058282;45.6158;-29.7680;8.4546;
513813218058282;45.3718;-29.7802;8.7352;
513813228058282;45.1156;-29.7802;9.0158;
513813238058282;44.9082;-29.7680;9.2354;
513813248058282;44.7374;-29.7070;9.6136;
513813258058282;44.4324;-29.6948;9.9552;
513813268058282;44.4812;-29.6826;10.0528;
513813278058282;44.5910;-29.6338;10.0406;
513813288058282;44.5910;-29.5850;10.0772;
513813298058282;44.6886;-29.5118;10.0162;
513813308058282;44.6886;-29.4630;10.0284;
513813318058282;44.8228;-29.3898;9.9064;
513813328058282;44.7496;-29.4020;9.9796;
513813338058282;44.7862;-29.3898;9.9064;
513813348058282;44.8594;-29.3288;9.8454;
513813358058282;44.8838;-29.3288;9.6990;
513813368058282;45.0302;-29.3288;9.4916;
513813378058282;45.1644;-29.3166;9.3696;
513813388058282;45.2376;-29.3166;9.3330;
513813398058282;45.1766;-29.3166;9.5282;
513813408058282;45.2498;-29.2678;9.3940;
513813418058282;45.3718;-29.2312;9.2720;
513813428058282;45.4206;-29.2434;9.1866;
513813438058282;45.5548;-29.2312;9.1256;
513813448058282;45.7378;-29.1946;8.9548;
513813458058282;45.7866;-29.1946;8.8450;
513813468058282;45.8232;-29.1580;8.7474;
513813478058282;45.9452;-29.1580;8.6010;
513813488058282;46.0672;-29.1458;8.5278;
513813498058282;46.2258;-29.1458;8.4668;
513813508058282;46.3112;-29.1336;8.4546;
513813518058282;46.3112;-29.1092;8.5034;
513813528058282;46.2136;-29.1336;8.7108;
513813538058282;46.1404;-29.1092;8.8694;
513813548058282;46.1038;-29.0726;9.0036;
513813558058282;46.0428;-29.0726;9.0890;
513813568058282;46.0428;-29.0848;9.0646;
513813578058282;46.0184;-29.0482;9.0646;
513813588058282;45.9696;-29.0360;9.0890;
513813598058282;45.9086;-29.0116;9.1134;
513813608058282;45.7622;-28.9872;9.2110;
513813618058282;45.6280;-29.0116;9.3696;
513813628058282;45.5914;-29.0238;9.3818;
513813638058282;45.4572;-29.0482;9.3696;
513813648058282;45.4084;-29.0604;9.4794;
513813658058282;45.2864;-29.0726;9.6136;
513813668058282;45.2132;-29.1092;9.6380;
513813678058282;45.2254;-29.1458;9.6502;
513813688058282;45.3108;-29.1458;9.5404;
513813698058282;45.4938;-29.1824;9.3330;
513813708058282;45.5670;-29.2190;9.2720;
513813718058282;45.7256;-29.1824;9.1256;
513813728058282;45.7256;-29.2190;9.0646;
513813738058282;45.7622;-29.2556;9.0524;
513813748058282;45.8720;-29.2678;8.9182;
513813758058282;46.0306;-29.2922;8.7108;
513813768058282;46.1648;-29.2922;8.5766;
513813778058282;46.2624;-29.3288;8.4668;
513813788058282;46.3356;-29.3654;8.3814;
513813798058282;46.4820;-29.4386;8.2228;
513813808058282;46.6040;-29.4508;8.0764;
513813818058282;46.7382;-29.4508;7.9056;
513813828058282;46.7382;-29.4752;7.9300;
513813838058282;46.7382;-29.4752;7.9666;
513813848058282;46.6528;-29.5362;8.1130;
513813858058282;46.5064;-29.5362;8.3448;
513813868058282;46.3966;-29.5484;8.4546;
513813878058282;46.2136;-29.5728;8.6986;
513813888058282;46.2502;-29.5606;8.6986;
513813898058282;46.3478;-29.5484;8.5522;
513813908058282;46.4088;-29.5606;8.5278;
513813918058282;46.4088;-29.5606;8.6010;
513813928058282;46.4942;-29.5240;8.4668;
513813938058282;46.5674;-29.4996;8.2594;
513813948058282;46.6650;-29.4874;8.2228;
513813958058282;46.7260;-29.4874;8.1374;
513813968058282;46.6284;-29.5118;8.2350;
513813978058282;46.4698;-29.5484;8.4424;
513813988058282;46.3844;-29.5850;8.4546;
513813998058282;46.3356;-29.5850;8.4668;
513814008058282;46.1770;-29.6216;8.6010;
513814018058282;46.1160;-29.6338;8.7840;
513814028058282;45.9696;-29.6826;8.8816;
513814038058282;45.9330;-29.6338;8.9182;
513814048058282;45.9940;-29.5972;8.9426;
513814058058282;45.9696;-29.5850;8.9426;
513814068058282;45.9208;-29.5728;8.9914;
513814078058282;45.8964;-29.5850;9.0280;
513814088058282;45.9086;-29.5850;9.0768;
513814098058282;45.9208;-29.5972;9.1256;
513814108058282;45.9330;-29.5728;9.0890;
513814118058282;45.8598;-29.6338;9.1744;
513814128058282;45.6768;-29.7192;9.2720;
513814138058282;45.5914;-29.7436;9.3696;
513814148058282;45.5792;-29.7680;9.4794;
513814158058282;45.4694;-29.8290;9.5892;
513814168058282;45.5304;-29.8656;9.4794;
513814178058282;45.5426;-29.9632;9.3818;
513814188058282;45.5304;-30.0364;9.3330;
513814198058282;45.5304;-30.0608;9.3940;
513814208058282;45.5548;-30.0242;9.3940;
513814218058282;45.5792;-30.0242;9.4428;
513814228058282;45.7134;-30.0242;9.3696;
513814238058282;45.8720;-30.0608;9.1988;
513814248058282;45.9940;-30.0364;9.1500;
513814258058282;46.0672;-29.9632;9.1744;
513814268058282;46.0672;-29.8778;9.3086;
513814278058282;46.1038;-29.7802;9.3330;
513814288058282;46.0916;-29.7436;9.4550;
513814298058282;45.9574;-29.7314;9.6868;
513814308058282;45.6768;-29.6948;10.0040;
513814318058282;45.4694;-29.6094;10.2480;
513814328058282;45.4572;-29.5606;10.3212;
513814338058282;45.3596;-29.4874;10.3944;
513814348058282;45.4206;-29.4264;10.3334;
513814358058282;45.4450;-29.3532;10.2602;
513814368058282;45.5182;-29.3166;10.1138;
513814378058282;45.6890;-29.2190;9.8820;
513814388058282;45.8354;-29.1092;9.7356;
513814398058282;46.0184;-28.9506;9.6624;
513814408058282;45.9696;-28.8286;9.7600;
513814418058282;46.0062;-28.7554;9.7966;
513814428058282;45.9574;-28.7066;10.0528;
513814438058282;45.9452;-28.6090;10.2358;
513814448058282;46.0062;-28.4626;10.3090;
513814458058282;46.1160;-28.3894;10.2846;
513814468058282;46.1770;-28.2552;10.2114;
513814478058282;46.1648;-28.2430;10.3090;
513814488058282;46.2136;-28.1820;10.2968;
513814498058282;46.3478;-28.0478;10.2358;
513814508058282;46.5186;-27.9258;10.0162;
513814518058282;46.5918;-27.9014;9.9552;
513814528058282;46.5064;-27.8648;10.0162;
513814538058282;46.4576;-27.8282;10.1382;
513814548058282;46.4454;-27.8160;10.2724;
513814558058282;46.4820;-27.7550;10.2236;
513814568058282;46.5186;-27.7062;10.2968;
513814578058282;46.3600;-27.6818;10.5286;
513814588058282;46.2868;-27.6330;10.6384;
513814598058282;46.2990;-27.5720;10.6750;
513814608058282;46.5186;-27.5232;10.6018;
513814618058282;46.6284;-27.4378;10.5408;
513814628058282;46.7260;-27.3890;10.4920;
513814638058282;46.6528;-27.3890;10.6506;
513814648058282;46.5430;-27.3646;10.7848;
513814658058282;46.5796;-27.4012;10.7726;
513814668058282;46.6406;-27.4256;10.7726;
513814678058282;46.6650;-27.4622;10.7604;
513814688058282;46.4332;-27.5354;10.9556;
513814698058282;46.2136;-27.5964;11.1630;
513814708058282;45.9452;-27.6696;11.3826;
513814718058282;45.8842;-27.7184;11.5290;
513814728058282;45.8476;-27.7794;11.5290;
513814738058282;45.7134;-27.9014;11.6144;
513814748058282;45.5304;-27.9990;11.7364;
513814758058282;45.4084;-28.1698;11.8096;
513814768058282;45.4694;-28.2430;11.7120;
513814778058282;45.5792;-28.3406;11.6144;
513814788058282;45.6890;-28.4626;11.4314;
513814798058282;45.7256;-28.5602;11.2362;
513814808058282;45.7622;-28.7066;11.0410;
513814818058282;45.7866;-28.7432;10.9434;
513814828058282;45.8720;-28.8286;10.7604;
513814838058282;45.8354;-28.8652;10.6628;
513814848058282;45.8232;-28.9262;10.6140;
513814858058282;45.7378;-29.0116;10.5652;
513814868058282;45.6768;-29.0970;10.6018;
513814878058282;45.5792;-29.1580;10.6506;
513814888058282;45.4328;-29.1946;10.8824;
513814898058282;45.2986;-29.2312;11.0898;
513814908058282;45.0668;-29.3044;11.3216;
513814918058282;44.8838;-29.3532;11.5656;
513814928058282;44.7130;-29.4508;11.8096;
513814938058282;44.5666;-29.5118;11.8706;
513814948058282;44.4446;-29.5606;12.0292;
513814958058282;44.5178;-29.6094;11.9438;
513814968058282;44.6398;-29.6338;11.6510;
513814978058282;44.8350;-29.6338;11.3704;
513814988058282;45.0424;-29.6704;11.0898;
513814998058282;45.3596;-29.6338;10.7360;
513815008058282;45.4816;-29.6582;10.5286;
513815018058282;45.6158;-29.7314;10.3822;
513815028058282;45.8232;-29.7192;10.0406;
513815038058282;45.7744;-29.7680;10.0284;
513815048058282;45.6768;-29.8290;10.1748;
513815058058282;45.6036;-29.9632;10.1870;
513815068058282;45.6280;-30.0242;10.1748;
513815078058282;45.5792;-30.1096;10.2480;
513815088058282;45.5060;-30.1462;10.2480;
513815098058282;45.5060;-30.1706;10.2968;
513815108058282;45.4084;-30.2316;10.4310;
513815118058282;45.4206;-30.2926;10.4310;
513815128058282;45.4450;-30.3414;10.4066;
513815138058282;45.3962;-30.3780;10.4676;
513815148058282;45.3230;-30.4512;10.5408;
513815158058282;45.2132;-30.5122;10.5530;
513815168058282;45.2376;-30.5976;10.5042;
513815178058282;45.1522;-30.7074;10.5408;
513815188058282;44.9936;-30.7806;10.6262;
513815198058282;44.9448;-30.8294;10.7116;
513815208058282;44.9082;-30.9026;10.6506;
513815218058282;44.9326;-30.8782;10.6018;
513815228058282;44.8106;-30.8782;10.6506;
513815238058282;44.7740;-30.8782;10.5774;
513815248058282;44.8594;-30.8904;10.5042;
513815258058282;45.0424;-30.8538;10.2114;
513815268058282;45.2986;-30.8416;9.9064;
513815278058282;45.3962;-30.9026;9.7600;
513815288058282;45.6402;-30.8904;9.6380;
513815298058282;45.7256;-30.9148;9.4794;
513815308058282;45.8598;-30.9270;9.3574;
513815318058282;45.9696;-30.9270;9.3940;
513815328058282;45.9086;-30.9148;9.4306;
513815338058282;45.8598;-30.8782;9.6136;
513815348058282;45.8354;-30.8294;9.7356;
513815358058282;45.7866;-30.7928;9.7356;
513815368058282;45.6158;-30.7196;9.8942;
513815378058282;45.5060;-30.7562;10.0162;
513815388058282;45.5304;-30.7684;10.0650;
513815398058282;45.5548;-30.7440;10.0162;
513815408058282;45.7134;-30.7684;9.8820;
513815418058282;45.7622;-30.7684;9.8210;
513815428058282;45.7622;-30.8294;9.7722;
513815438058282;45.8110;-30.8416;9.7112;
513815448058282;45.8842;-30.9514;9.5526;
513815458058282;46.0062;-30.9636;9.4306;
513815468058282;46.0550;-31.0002;9.3452;
513815478058282;46.0428;-31.0856;9.2842;
513815488058282;45.9452;-31.1100;9.3452;
513815498058282;45.9452;-31.1588;9.3452;
513815508058282;45.9452;-31.2442;9.3940;
513815518058282;45.9330;-31.2808;9.4428;
513815528058282;45.8720;-31.2564;9.4672;
513815538058282;45.8598;-31.2808;9.4062;
513815548058282;45.7988;-31.2930;9.4672;
513815558058282;45.7256;-31.2808;9.5160;
513815568058282;45.7012;-31.3052;9.6014;
513815578058282;45.6524;-31.3296;9.6502;
513815588058282;45.6402;-31.3052;9.5770;
513815598058282;45.6280;-31.3052;9.5160;
513815608058282;45.7500;-31.3418;9.3818;
513815618058282;45.9330;-31.3418;9.1622;
513815628058282;46.0550;-31.3540;8.9304;
513815638058282;46.2136;-31.3784;8.8084;
513815648058282;46.2990;-31.4272;8.6620;
513815658058282;46.3722;-31.4516;8.5278;
513815668058282;46.3844;-31.4882;8.5644;
513815678058282;46.4576;-31.5126;8.5278;
513815688058282;46.3722;-31.5370;8.6498;
513815698058282;46.3112;-31.5492;8.8450;
513815708058282;46.1770;-31.5614;9.0646;
513815718058282;46.1404;-31.5858;9.1256;
513815728058282;46.1404;-31.5736;9.2354;
513815738058282;46.0794;-31.5492;9.4062;
513815748058282;46.1404;-31.5492;9.4550;
513815758058282;46.0550;-31.5248;9.6258;
513815768058282;46.0184;-31.5614;9.7844;
513815778058282;45.9330;-31.5614;9.9308;
513815788058282;45.8842;-31.5736;10.0772;
513815798058282;45.7622;-31.5614;10.3212;
513815808058282;45.6890;-31.5614;10.5286;
513815818058282;45.6280;-31.5736;10.6018;
513815828058282;45.5182;-31.5858;10.7848;
513815838058282;45.4938;-31.5980;10.8458;
513815848058282;45.4206;-31.5980;10.8824;
513815858058282;45.3840;-31.6224;10.9922;
513815868058282;45.3840;-31.6102;10.9678;
513815878058282;45.4938;-31.5980;10.9434;
513815888058282;45.4450;-31.5980;10.9068;
513815898058282;45.5914;-31.5980;10.7970;
513815908058282;45.6768;-31.5980;10.7238;
513815918058282;45.7378;-31.5736;10.7116;
513815928058282;45.8720;-31.5370;10.7116;
513815938058282;45.8232;-31.5004;10.7238;
513815948058282;45.9208;-31.5126;10.6384;
513815958058282;45.8598;-31.5614;10.6140;
513815968058282;45.9208;-31.5858;10.5286;
513815978058282;45.8232;-31.5858;10.6872;
513815988058282;45.7134;-31.5980;10.7116;
513815998058282;45.6402;-31.6590;10.7360;
513816008058282;45.5304;-31.7078;10.6872;
513816018058282;45.4816;-31.7322;10.5896;
513816028058282;45.4084;-31.7932;10.6628;
513816038058282;45.2986;-31.7566;10.7482;
513816048058282;45.2254;-31.7688;10.8214;
513816058058282;45.1522;-31.7810;10.7848;
513816068058282;45.1644;-31.7688;10.6872;
513816078058282;45.1766;-31.7444;10.5774;
513816088058282;45.2376;-31.7566;10.6018;
513816098058282;45.2742;-31.7444;10.5774;
513816108058282;45.2376;-31.7078;10.5652;
513816118058282;45.3108;-31.6834;10.4432;
513816128058282;45.3230;-31.6712;10.3212;
513816138058282;45.4084;-31.6224;10.1870;
513816148058282;45.4694;-31.5858;10.0894;
513816158058282;45.4084;-31.5980;10.0894;
513816168058282;45.3474;-31.5614;10.0284;
513816178058282;45.2132;-31.5614;10.0406;
513816188058282;45.2010;-31.5858;9.8576;
513816198058282;45.1156;-31.5736;9.7112;
513816208058282;44.9326;-31.5736;9.7600;
513816218058282;44.6520;-31.6346;9.7356;
513816228058282;44.4080;-31.6956;9.8088;
513816238058282;44.3348;-31.6834;9.8088;
513816248058282;44.1762;-31.7322;9.7112;
513816258058282;44.2006;-31.7566;9.6136;
513816268058282;44.1030;-31.7200;9.6868;
513816278058282;44.0664;-31.7444;9.8454;
513816288058282;44.1152;-31.7322;9.8820;
513816298058282;44.2494;-31.7078;9.9308;
513816308058282;44.2982;-31.6468;9.8820;
513816318058282;44.3470;-31.5980;9.8332;
513816328058282;44.5056;-31.5126;10.0040;
513816338058282;44.5056;-31.4150;10.2358;
513816348058282;44.5544;-31.3296;10.4066;
513816358058282;44.6032;-31.2564;10.4188;
513816368058282;44.4324;-31.1588;10.7970;
513816378058282;44.5422;-31.0612;10.8580;
513816388058282;44.7130;-30.9636;10.7970;
513816398058282;44.8106;-30.8782;10.8824;
513816408058282;44.7984;-30.8538;10.8580;
513816418058282;44.8716;-30.8294;10.8092;
513816428058282;45.0058;-30.8172;10.6872;
513816438058282;45.0668;-30.7562;10.6994;
513816448058282;45.3596;-30.7196;10.3578;
513816458058282;45.3962;-30.6586;10.2846;
513816468058282;45.2620;-30.6098;10.4798;
513816478058282;45.2498;-30.5976;10.5408;
513816488058282;45.2254;-30.5122;10.5042;
513816498058282;45.2620;-30.4390;10.5286;
513816508058282;45.1400;-30.4024;10.6872;
513816518058282;45.1034;-30.3536;10.6506;
513816528058282;45.1034;-30.3292;10.6384;
513816538058282;45.0668;-30.3292;10.7604;
513816548058282;45.1766;-30.2926;10.7360;
513816558058282;45.1644;-30.2926;10.6872;
513816568058282;45.1888;-30.2926;10.8336;
513816578058282;45.2010;-30.2926;10.8336;
513816588058282;45.3596;-30.2926;10.6506;
513816598058282;45.4328;-30.3170;10.7238;
513816608058282;45.4328;-30.2804;10.7238;
513816618058282;45.4572;-30.2682;10.6262;
513816628058282;45.4694;-30.3048;10.5774;
513816638058282;45.5060;-30.2926;10.5774;
513816648058282;45.5670;-30.3048;10.4432;
513816658058282;45.4450;-30.3414;10.5896;
513816668058282;45.2254;-30.3780;10.8214;
513816678058282;45.1156;-30.4024;10.9190;
513816688058282;44.9936;-30.4878;11.0654;
513816698058282;44.9936;-30.4878;11.1142;
513816708058282;44.9814;-30.5000;11.1386;
513816718058282;44.9082;-30.5488;11.1874;
513816728058282;44.7618;-30.6342;11.3460;
513816738058282;44.7252;-30.6830;11.2484;
513816748058282;44.9204;-30.7318;11.0654;
513816758058282;45.0302;-30.7440;10.9068;
513816768058282;45.1034;-30.7928;10.7604;
513816778058282;45.0180;-30.8782;10.8458;
513816788058282;45.0058;-30.9636;10.7604;
513816798058282;45.0058;-31.0490;10.6506;
513816808058282;45.1156;-31.0734;10.4554;
513816818058282;45.2742;-31.1710;10.2358;
513816828058282;45.1644;-31.2686;10.2846;
513816838058282;45.0302;-31.3662;10.3578;
513816848058282;44.8350;-31.4760;10.4188;
513816858058282;44.7496;-31.5492;10.4066;
513816868058282;44.6032;-31.6712;10.5164;
513816878058282;44.5056;-31.7810;10.6384;
513816888058282;44.3592;-31.8786;10.8336;
513816898058282;44.2250;-31.9518;11.0044;
513816908058282;44.1640;-31.9884;10.9312;
513816918058282;44.1274;-32.0982;10.9556;
513816928058282;44.1152;-32.1470;10.9312;
513816938058282;44.0176;-32.2324;10.9556;
513816948058282;43.9444;-32.2568;10.9800;
513816958058282;43.9200;-32.2690;10.8946;
513816968058282;43.9322;-32.3056;10.6750;
513816978058282;43.9322;-32.3544;10.4554;
513816988058282;43.9566;-32.4032;10.4066;
513816998058282;44.0664;-32.4032;10.0650;
513817008058282;44.3348;-32.3910;9.7844;
513817018058282;44.5178;-32.3788;9.5526;
513817028058282;44.6520;-32.3788;9.3574;
513817038058282;44.5910;-32.4154;9.3086;
513817048058282;44.7130;-32.4276;9.1012;
513817058058282;44.8350;-32.4154;8.9792;
513817068058282;44.8960;-32.4032;8.8450;
513817078058282;44.9082;-32.4032;8.7352;
513817088058282;44.8228;-32.4520;8.7230;
513817098058282;44.7984;-32.4642;8.7230;
513817108058282;44.6764;-32.4886;8.8572;
513817118058282;44.7008;-32.4764;8.8572;
513817128058282;44.5422;-32.4886;9.1134;
513817138058282;44.3592;-32.5130;9.2842;
513817148058282;44.1884;-32.5130;9.5282;
513817158058282;43.9444;-32.5618;9.8942;
513817168058282;43.9200;-32.5008;9.9918;
513817178058282;43.8956;-32.5008;10.0772;
513817188058282;44.0176;-32.5130;9.8454;
513817198058282;44.1640;-32.4886;9.7478;
513817208058282;44.3226;-32.4886;9.5038;
513817218058282;44.3348;-32.4276;9.5770;
513817228058282;44.3592;-32.4642;9.5282;
513817238058282;44.4812;-32.4520;9.3330;
513817248058282;44.5056;-32.4520;9.2598;
513817258058282;44.5300;-32.4764;9.0890;
513817268058282;44.6642;-32.4642;9.0524;
513817278058282;44.7130;-32.4398;8.9914;
513817288058282;44.6642;-32.3910;9.0280;
513817298058282;44.8350;-32.4154;8.7718;
513817308058282;44.9448;-32.3544;8.6254;
513817318058282;45.0790;-32.3056;8.4912;
513817328058282;45.2498;-32.3056;8.2106;
513817338058282;45.4450;-32.2080;7.9422;
513817348058282;45.4572;-32.1348;7.8080;
513817358058282;45.5670;-32.1104;7.6128;
513817368058282;45.6890;-32.1226;7.4908;
513817378058282;45.8964;-32.0372;7.3078;
513817388058282;46.0550;-32.0494;7.1004;
513817398058282;46.0672;-32.0250;7.2468;
513817408058282;45.8964;-32.0372;7.5762;
513817418058282;45.6646;-32.0616;7.9300;
513817428058282;45.4572;-32.0982;8.3204;
513817438058282;45.2132;-32.1104;8.6864;
513817448058282;45.0790;-32.0860;8.8816;
513817458058282;44.8350;-32.1104;9.1500;
513817468058282;44.7618;-32.0616;9.2842;
513817478058282;44.7374;-32.0372;9.2598;
513817488058282;44.7862;-32.0128;9.1744;
513817498058282;44.8350;-32.0128;9.1988;
513817508058282;44.9814;-31.9518;9.0158;
513817518058282;44.9814;-31.9518;9.0280;
513817528058282;44.9570;-31.9396;9.1744;
513817538058282;44.8960;-31.9518;9.2354;
513817548058282;44.8472;-31.9396;9.3818;
513817558058282;44.7984;-31.9762;9.5038;
513817568058282;44.6886;-31.9396;9.6502;
513817578058282;44.5666;-31.9152;9.7356;
513817588058282;44.4568;-31.8542;9.9430;
513817598058282;44.4934;-31.7444;9.9308;
513817608058282;44.4934;-31.6834;9.9308;
513817618058282;44.5178;-31.5614;10.0162;
513817628058282;44.4568;-31.4638;10.1260;
513817638058282;44.3348;-31.3174;10.2480;
513817648058282;44.3836;-31.2198;10.3090;
513817658058282;44.4568;-31.0978;10.3822;
513817668058282;44.5422;-31.0246;10.3578;
513817678058282;44.7130;-30.9880;10.3212;
513817688058282;44.8106;-30.8782;10.3090;
513817698058282;44.8594;-30.7562;10.3334;
513817708058282;45.0302;-30.6708;10.1870;
513817718058282;45.2986;-30.5854;10.0284;
513817728058282;45.4328;-30.5000;9.9796;
513817738058282;45.5548;-30.4146;9.8576;
513817748058282;45.7012;-30.3658;9.7478;
513817758058282;45.6768;-30.2926;9.8332;
513817768058282;45.7012;-30.2072;9.8088;
513817778058282;45.7500;-30.2316;9.7112;
513817788058282;45.8720;-30.1950;9.6380;
513817798058282;45.9452;-30.1950;9.5404;
513817808058282;46.0062;-30.1950;9.5770;
513817818058282;46.0062;-30.1340;9.6136;
513817828058282;45.8720;-30.1218;9.7722;
513817838058282;45.8720;-30.0974;9.7844;
513817848058282;45.8964;-30.0974;9.7600;
513817858058282;45.8720;-30.0486;9.8820;
513817868058282;45.7378;-30.0730;10.1260;
513817878058282;45.5426;-30.0730;10.3944;
513817888058282;45.5304;-30.0608;10.3822;
513817898058282;45.6158;-30.0852;10.3578;
513817908058282;45.5792;-30.1218;10.3822;
513817918058282;45.5182;-30.1096;10.4432;
513817928058282;45.4328;-30.1828;10.6018;
513817938058282;45.4084;-30.2316;10.6384;
513817948058282;45.2132;-30.2438;10.8092;
513817958058282;45.1400;-30.2682;10.8702;
513817968058282;44.9814;-30.3414;11.0410;
513817978058282;44.9570;-30.3658;11.0410;
513817988058282;45.0424;-30.3414;10.9312;
513817998058282;45.2376;-30.3780;10.7848;
513818008058282;45.2620;-30.3658;10.7604;
513818018058282;45.3962;-30.4146;10.5652;
513818028058282;45.6280;-30.4390;10.2724;
513818038058282;45.7866;-30.4634;10.0772;
513818048058282;46.0428;-30.4268;9.7966;
513818058058282;46.1038;-30.4512;9.7844;
513818068058282;46.0916;-30.5244;9.8332;
513818078058282;46.1038;-30.5732;9.8088;
513818088058282;46.2990;-30.5610;9.5648;
513818098058282;46.3966;-30.5610;9.5648;
513818108058282;46.3600;-30.5488;9.6258;
513818118058282;46.4942;-30.5610;9.5160;
513818128058282;46.4576;-30.5976;9.6136;
513818138058282;46.4210;-30.6464;9.7112;
513818148058282;46.5430;-30.5976;9.7112;
513818158058282;46.4332;-30.6098;9.8820;
513818168058282;46.2624;-30.6586;10.1138;
513818178058282;46.1648;-30.6952;10.2724;
513818188058282;46.1648;-30.7928;10.2480;
513818198058282;46.0428;-30.8416;10.3822;
513818208058282;45.9818;-30.8904;10.3944;
513818218058282;45.9330;-30.8782;10.3090;
513818228058282;45.7988;-30.9148;10.4066;
513818238058282;45.7378;-30.9148;10.4188;
513818248058282;45.7744;-30.9148;10.3578;
513818258058282;45.6280;-30.9270;10.5408;
513818268058282;45.5182;-30.9148;10.8336;
513818278058282;45.3840;-30.8660;11.0776;
513818288058282;45.2010;-30.8904;11.3826;
513818298058282;44.9936;-30.9758;11.6754;
513818308058282;44.8838;-31.0490;11.8584;
513818318058282;44.6398;-31.0978;12.1512;
513818328058282;44.5666;-31.1100;12.2854;
513818338058282;44.5666;-31.1222;12.1756;
513818348058282;44.5788;-31.1466;12.0902;
513818358058282;44.5056;-31.2442;12.0170;
513818368058282;44.5544;-31.2564;11.8096;
513818378058282;44.6886;-31.2808;11.7242;
513818388058282;44.6764;-31.3296;11.6144;
513818398058282;44.5788;-31.4394;11.6266;
513818408058282;44.5178;-31.5492;11.6022;
513818418058282;44.5300;-31.6468;11.6632;
513818428058282;44.5178;-31.7322;11.5412;
513818438058282;44.5788;-31.7932;11.3704;
513818448058282;44.5056;-31.9152;11.4436;
513818458058282;44.4446;-32.0128;11.3338;
513818468058282;44.4812;-32.0982;11.1752;
513818478058282;44.7740;-32.1592;10.7238;
513818488058282;44.9082;-32.2324;10.4554;
513818498058282;44.9692;-32.2690;10.1870;
513818508058282;45.1034;-32.3422;9.9308;
513818518058282;45.1888;-32.3910;9.7844;
513818528058282;45.2986;-32.4764;9.5404;
513818538058282;45.3352;-32.5008;9.3574;
513818548058282;45.3596;-32.5496;9.1988;
513818558058282;45.2986;-32.6594;9.2720;
513818568058282;45.1888;-32.7692;9.3086;
513818578058282;45.1156;-32.8790;9.1988;
513818588058282;44.9692;-32.9766;9.2598;
513818598058282;44.7618;-33.1352;9.4550;
513818608058282;44.7008;-33.1474;9.4306;
513818618058282;44.6276;-33.2694;9.5404;
513818628058282;44.4934;-33.3548;9.6136;
513818638058282;44.3714;-33.3792;9.5648;
513818648058282;44.2738;-33.4036;9.5526;
513818658058282;44.0786;-33.4890;9.7722;
513818668058282;43.7858;-33.5378;10.1016;
513818678058282;43.6760;-33.5378;10.1870;
513818688058282;43.5174;-33.5988;10.3212;
513818698058282;43.4198;-33.5622;10.2846;
513818708058282;43.3344;-33.5622;10.3334;
513818718058282;43.1880;-33.5744;10.5530;
513818728058282;43.0294;-33.5622;10.7360;
513818738058282;42.9684;-33.5134;10.7604;
513818748058282;43.1392;-33.4280;10.5164;
513818758058282;43.1880;-33.4280;10.3456;
513818768058282;43.0660;-33.4036;10.4554;
513818778058282;42.9684;-33.3914;10.6262;
513818788058282;42.9318;-33.3426;10.6750;
513818798058282;43.0172;-33.2816;10.6140;
513818808058282;43.1392;-33.2450;10.4066;
513818818058282;43.1880;-33.2206;10.3456;
513818828058282;43.1148;-33.2206;10.4310;
513818838058282;43.0904;-33.2084;10.4676;
513818848058282;43.2490;-33.1962;10.2846;
513818858058282;43.3466;-33.1474;10.1382;
513818868058282;43.4442;-33.1352;10.0040;
513818878058282;43.5662;-33.0620;9.7966;
513818888058282;43.7858;-32.9888;9.6014;
513818898058282;44.0054;-32.9156;9.4428;
513818908058282;44.2006;-32.8302;9.2110;
513818918058282;44.3714;-32.7204;9.0036;
513818928058282;44.5422;-32.6228;8.7962;
513818938058282;44.7008;-32.5130;8.5644;
513818948058282;44.8960;-32.4276;8.5156;
513818958058282;45.0546;-32.3666;8.3814;
513818968058282;45.0668;-32.3422;8.3570;
513818978058282;45.0790;-32.2568;8.2716;
513818988058282;45.1278;-32.1470;8.1618;
513818998058282;45.2986;-32.0738;8.0154;
513819008058282;45.2986;-31.9884;8.1496;
513819018058282;45.2864;-31.9152;8.1618;
513819028058282;45.2986;-31.8542;8.0276;
513819038058282;45.1156;-31.8054;8.1984;
513819048058282;45.0424;-31.7200;8.3326;
513819058058282;45.0058;-31.6468;8.5034;
513819068058282;44.9692;-31.5858;8.5888;
513819078058282;44.9570;-31.5004;8.7108;
513819088058282;44.9570;-31.4272;8.7230;
513819098058282;44.9692;-31.3296;8.8694;
513819108058282;45.0058;-31.2198;8.9670;
513819118058282;45.1888;-31.0978;8.7596;
513819128058282;45.3474;-30.9514;8.7352;
513819138058282;45.3962;-30.8782;8.7230;
513819148058282;45.2986;-30.7684;8.9792;
513819158058282;45.0302;-30.6830;9.2842;
513819168058282;44.9204;-30.5854;9.4184;
513819178058282;44.8350;-30.5488;9.4916;
513819188058282;44.7984;-30.5000;9.5282;
513819198058282;44.8228;-30.4268;9.6990;
513819208058282;44.7374;-30.3536;9.8088;
513819218058282;44.7740;-30.2804;9.8820;
513819228058282;44.9570;-30.2194;9.8210;
513819238058282;45.2376;-30.1462;9.6624;
513819248058282;45.4938;-30.0852;9.5892;
513819258058282;45.6280;-30.0364;9.5404;
513819268058282;45.5304;-29.9876;9.7844;
513819278058282;45.5304;-29.9510;9.7966;
513819288058282;45.7012;-29.9754;9.7478;
513819298058282;45.7744;-29.9266;9.6624;
513819308058282;45.8476;-29.9388;9.5282;
513819318058282;45.8842;-29.9632;9.5526;
513819328058282;45.8110;-29.9876;9.6258;
513819338058282;45.9452;-29.9754;9.5892;
513819348058282;46.1160;-30.0242;9.4306;
513819358058282;46.1038;-30.0364;9.4062;
513819368058282;46.0062;-30.0730;9.5038;
513819378058282;46.0062;-30.1218;9.4794;
513819388058282;46.0306;-30.1828;9.5038;
513819398058282;46.0672;-30.2072;9.4550;
513819408058282;46.1038;-30.2682;9.3574;
513819418058282;46.0306;-30.3658;9.3574;
513819428058282;45.9696;-30.3902;9.3818;
513819438058282;45.8598;-30.4512;9.4672;
513819448058282;45.7500;-30.5122;9.5038;
513819458058282;45.6280;-30.6220;9.6136;
513819468058282;45.6158;-30.6464;9.5282;
513819478058282;45.5426;-30.7440;9.4794;
513819488058282;45.5060;-30.8294;9.3940;
513819498058282;45.4206;-30.9026;9.4306;
513819508058282;45.3840;-30.9636;9.3940;
513819518058282;45.5060;-31.0124;9.3208;
513819528058282;45.5914;-31.0368;9.2354;
513819538058282;45.5548;-31.0612;9.2232;
513819548058282;45.3352;-31.1466;9.5160;
513819558058282;45.1888;-31.1710;9.6380;
513819568058282;45.1156;-31.1710;9.6868;
513819578058282;45.1278;-31.1710;9.6990;
513819588058282;45.1766;-31.2076;9.5770;
513819598058282;45.2742;-31.3052;9.3452;
513819608058282;45.3840;-31.3418;9.0890;
513819618058282;45.5792;-31.4028;8.8572;
513819628058282;45.7012;-31.4394;8.5766;
513819638058282;45.7988;-31.4760;8.4302;
513819648058282;45.7988;-31.5248;8.3326;
513819658058282;45.8598;-31.5492;8.1740;
513819668058282;45.8476;-31.5614;8.1862;
513819678058282;45.6280;-31.5858;8.4424;
513819688058282;45.3474;-31.6224;8.8206;
513819698058282;45.1156;-31.5858;9.1378;
513819708058282;45.0424;-31.5858;9.2964;
513819718058282;44.8716;-31.5980;9.5404;
513819728058282;44.6886;-31.5858;9.8698;
513819738058282;44.4202;-31.5736;10.1870;
513819748058282;44.2494;-31.5492;10.4188;
513819758058282;44.1640;-31.5614;10.5530;
513819768058282;44.1152;-31.5736;10.6384;
513819778058282;43.9932;-31.5736;10.8336;
513819788058282;43.8224;-31.5980;10.9922;
513819798058282;43.7492;-31.6102;11.2118;
513819808058282;43.7980;-31.5980;11.2362;
513819818058282;43.8468;-31.5980;11.2484;
513819828058282;43.8346;-31.6590;11.2850;
513819838058282;43.8834;-31.5980;11.2240;
513819848058282;43.9932;-31.6102;11.0898;
513819858058282;44.1640;-31.6102;10.8702;
513819868058282;44.4568;-31.5614;10.5164;
513819878058282;44.8228;-31.5248;10.0162;
513819888058282;44.8838;-31.5614;9.7844;
513819898058282;45.0180;-31.5614;9.6258;
513819908058282;45.1644;-31.5614;9.4672;
513819918058282;45.3108;-31.5736;9.2964;
513819928058282;45.4816;-31.5248;9.0890;
513819938058282;45.5426;-31.5736;8.9792;
513819948058282;45.4084;-31.5736;9.1622;
513819958058282;45.1278;-31.5736;9.4184;
513819968058282;45.2254;-31.5370;9.3452;
513819978058282;45.2620;-31.5248;9.2720;
513819988058282;45.2864;-31.5126;9.2232;
513819998058282;45.1766;-31.5248;9.2964;
513820008058282;45.0058;-31.6102;9.4184;
513820018058282;45.0790;-31.6102;9.2476;
513820028058282;45.1644;-31.6956;9.0646;
513820038058282;45.2620;-31.7932;8.9670;
513820048058282;45.2010;-31.8664;9.0158;
513820058058282;45.1156;-31.9396;9.0158;
513820068058282;45.0668;-31.9884;8.9792;
513820078058282;45.0668;-32.0128;8.9426;
513820088058282;45.2010;-32.0372;8.8084;
513820098058282;45.0912;-32.0738;8.9182;
513820108058282;44.9326;-32.1104;9.1012;
513820118058282;44.9204;-32.1226;9.0890;
513820128058282;44.8472;-32.1226;9.1256;
513820138058282;44.6398;-32.2446;9.3330;
513820148058282;44.4934;-32.2812;9.4794;
513820158058282;44.3470;-32.3300;9.5038;
513820168058282;44.1030;-32.4032;9.6868;
513820178058282;43.9322;-32.4276;9.7478;
513820188058282;43.8468;-32.4154;9.7966;
513820198058282;43.8468;-32.4398;9.6868;
513820208058282;43.9810;-32.4520;9.4672;
513820218058282;44.3104;-32.4032;9.0768;
513820228058282;44.5422;-32.4154;8.8694;
513820238058282;44.6154;-32.4398;8.8084;
513820248058282;44.7496;-32.4032;8.7230;
513820258058282;44.8716;-32.4154;8.6742;
513820268058282;45.0668;-32.4520;8.5034;
513820278058282;44.9936;-32.4276;8.5888;
513820288058282;44.9326;-32.4520;8.6376;
513820298058282;44.8472;-32.4398;8.7352;
513820308058282;44.6764;-32.4520;8.9182;
513820318058282;44.6520;-32.4154;8.9914;
513820328058282;44.5910;-32.4276;9.1012;
513820338058282;44.4446;-32.5252;9.1744;
513820348058282;44.3958;-32.4886;9.1866;
513820358058282;44.3470;-32.5252;9.2232;
513820368058282;44.2616;-32.5496;9.2964;
513820378058282;44.2372;-32.5740;9.3696;
513820388058282;44.1762;-32.5374;9.3574;
513820398058282;44.2250;-32.5374;9.3696;
513820408058282;44.1152;-32.5252;9.4184;
513820418058282;43.9932;-32.4520;9.5892;
513820428058282;43.7736;-32.5008;9.8698;
513820438058282;43.6516;-32.5252;10.0040;
513820448058282;43.5052;-32.4886;10.2236;
513820458058282;43.2978;-32.4642;10.4310;
513820468058282;43.1514;-32.5130;10.6140;
513820478058282;43.0416;-32.5374;10.7482;
513820488058282;42.9806;-32.5618;10.8458;
513820498058282;43.1026;-32.5496;10.7482;
513820508058282;43.2490;-32.5496;10.5652;
513820518058282;43.3588;-32.5618;10.4188;
513820528058282;43.5052;-32.5862;10.2846;
513820538058282;43.6028;-32.6350;10.1382;
513820548058282;43.6638;-32.6838;9.9918;
513820558058282;43.7004;-32.7326;9.9186;
513820568058282;43.8346;-32.7936;9.6746;
513820578058282;43.8468;-32.8912;9.6258;
513820588058282;43.7126;-32.9644;9.6990;
513820598058282;43.6272;-32.9888;9.8210;
513820608058282;43.4930;-33.0742;9.8820;
513820618058282;43.3100;-33.1474;10.0162;
513820628058282;43.2002;-33.1962;10.0772;
513820638058282;43.0294;-33.2694;10.0894;
513820648058282;42.8952;-33.3304;10.1260;
513820658058282;42.7244;-33.3548;10.2114;
513820668058282;42.5536;-33.4158;10.3090;
513820678058282;42.3950;-33.4280;10.4066;
513820688058282;42.2120;-33.4768;10.4676;
513820698058282;42.2608;-33.5378;10.3456;
513820708058282;42.3584;-33.5988;10.1748;
513820718058282;42.5048;-33.6110;10.0528;
513820728058282;42.5780;-33.6354;9.9674;
513820738058282;42.6878;-33.6232;9.7844;
513820748058282;42.9684;-33.6232;9.4428;
513820758058282;43.3100;-33.6232;8.9304;
513820768058282;43.7248;-33.5500;8.4546;
513820778058282;43.9932;-33.5134;8.0886;
513820788058282;44.1518;-33.4646;7.8934;
513820798058282;44.2006;-33.4402;7.7836;
513820808058282;44.3104;-33.3914;7.7226;
513820818058282;44.3348;-33.3792;7.6250;
513820828058282;44.3714;-33.3304;7.5640;
513820838058282;44.2982;-33.3426;7.6372;
513820848058282;44.1640;-33.3548;7.7592;
513820858058282;44.0298;-33.2938;7.8812;
513820868058282;44.0054;-33.2694;7.8202;
513820878058282;43.9932;-33.1962;7.7592;
513820888058282;44.0176;-33.1474;7.7226;
513820898058282;44.0908;-33.0498;7.6860;
513820908058282;44.1030;-32.9644;7.5884;
513820918058282;44.2372;-32.8302;7.4786;
513820928058282;44.4080;-32.7204;7.3200;
513820938058282;44.5300;-32.6350;7.2590;
513820948058282;44.7008;-32.5008;7.1614;
513820958058282;44.8960;-32.4276;7.0882;
513820968058282;44.9448;-32.2812;7.0760;
513820978058282;45.1278;-32.1836;6.9418;
513820988058282;45.2254;-32.0982;6.9174;
513820998058282;45.2498;-32.0006;6.9784;
513821008058282;45.2986;-31.9274;7.0394;
513821018058282;45.4084;-31.8298;6.9540;
513821028058282;45.3474;-31.7322;7.0516;
513821038058282;45.2986;-31.6224;7.1126;
513821048058282;45.2132;-31.5858;7.2590;
513821058058282;45.0302;-31.5370;7.5396;
513821068058282;44.9326;-31.4760;7.8812;
513821078058282;44.8106;-31.4028;8.0886;
513821088058282;44.7008;-31.3052;8.2838;
513821098058282;44.6520;-31.2320;8.5522;
513821108058282;44.6520;-31.1588;8.6742;
513821118058282;44.6398;-31.0978;8.8328;
513821128058282;44.7740;-30.9636;8.7474;
513821138058282;45.0058;-30.8660;8.6254;
513821148058282;45.1888;-30.7440;8.4912;
513821158058282;45.2864;-30.6952;8.4424;
513821168058282;45.2986;-30.6586;8.5156;
513821178058282;45.2010;-30.5976;8.6132;
513821188058282;45.1766;-30.5610;8.6742;
513821198058282;45.2132;-30.4878;8.7230;
513821208058282;45.1766;-30.4756;8.9182;
513821218058282;45.0790;-30.4024;9.0402;
513821228058282;45.1034;-30.3780;8.9914;
513821238058282;45.1766;-30.3536;8.8938;
513821248058282;45.2498;-30.2926;8.8572;
513821258058282;45.2498;-30.3414;8.9060;
513821268058282;45.2498;-30.3658;8.9060;
513821278058282;45.2376;-30.3902;8.8694;
513821288058282;45.1644;-30.4756;8.9060;
513821298058282;45.1034;-30.5366;8.9670;
513821308058282;45.1400;-30.5976;8.8694;
513821318058282;45.1644;-30.6342;8.8450;
513821328058282;45.2132;-30.6708;8.7840;
513821338058282;45.2010;-30.6830;8.7108;
513821348058282;45.1766;-30.7196;8.7230;
513821358058282;45.0546;-30.7318;8.8084;
513821368058282;45.0424;-30.7318;8.7474;
513821378058282;45.0546;-30.7196;8.7596;
513821388058282;44.9814;-30.6830;8.7474;
513821398058282;44.9570;-30.6342;8.7840;
513821408058282;44.9448;-30.5976;8.7962;
513821418058282;45.0668;-30.5366;8.6498;
513821428058282;45.1888;-30.4878;8.5644;
513821438058282;45.4206;-30.4390;8.3204;
513821448058282;45.6280;-30.3780;8.0520;
513821458058282;45.7378;-30.4268;7.9056;
513821468058282;45.6890;-30.4878;7.9910;
513821478058282;45.5060;-30.5122;8.1984;
513821488058282;45.3474;-30.5366;8.3204;
513821498058282;45.2620;-30.5732;8.4668;
513821508058282;45.1156;-30.5854;8.6498;
513821518058282;45.0180;-30.6098;8.7718;
513821528058282;44.9570;-30.6464;9.0158;
513821538058282;44.8350;-30.6098;9.0768;
513821548058282;44.8350;-30.5854;9.1500;
513821558058282;44.9326;-30.6342;8.9914;
513821568058282;45.1644;-30.6464;8.7230;
513821578058282;45.2498;-30.6830;8.5644;
513821588058282;45.1522;-30.6952;8.5888;
513821598058282;45.0546;-30.7074;8.7108;
513821608058282;44.9570;-30.7074;8.7108;
513821618058282;44.9448;-30.7318;8.7352;
513821628058282;45.0058;-30.7440;8.5766;
513821638058282;45.0912;-30.7074;8.5034;
513821648058282;45.0668;-30.7562;8.5278;
513821658058282;45.1278;-30.7440;8.4668;
513821668058282;45.3962;-30.7562;8.1374;
513821678058282;45.6158;-30.7318;7.8934;
513821688058282;45.7378;-30.7440;7.7836;
513821698058282;45.8110;-30.7928;7.6494;
513821708058282;45.7134;-30.8172;7.7958;
513821718058282;45.5670;-30.8172;7.9666;
513821728058282;45.4450;-30.7684;8.1008;
513821738058282;45.3352;-30.7684;8.2716;
513821748058282;45.2010;-30.7562;8.4790;
513821758058282;45.0668;-30.7318;8.6620;
513821768058282;45.0424;-30.7562;8.6620;
513821778058282;45.1644;-30.6708;8.6376;
513821788058282;45.2864;-30.6342;8.4912;
513821798058282;45.4328;-30.6098;8.3448;
513821808058282;45.5792;-30.6220;8.2106;
513821818058282;45.8232;-30.6342;8.0032;
513821828058282;46.0428;-30.6342;7.8446;
513821838058282;46.1892;-30.6342;7.6860;
513821848058282;46.2014;-30.5732;7.6494;
513821858058282;46.1526;-30.5488;7.7104;
513821868058282;46.1160;-30.4878;7.8324;
513821878058282;46.1160;-30.4634;7.9178;
513821888058282;46.1160;-30.3902;7.8934;
513821898058282;46.0550;-30.3048;7.9788;
513821908058282;45.9696;-30.2804;8.0154;
513821918058282;45.9452;-30.2560;8.1008;
513821928058282;46.0550;-30.1584;8.0276;
513821938058282;46.1404;-30.1340;7.8812;
513821948058282;46.1770;-30.1218;7.8324;
513821958058282;46.1892;-30.0608;7.8080;
513821968058282;46.0428;-30.0120;8.0398;
513821978058282;45.8964;-30.0120;8.1984;
513821988058282;45.9208;-29.9388;8.2472;
513821998058282;45.8720;-29.9022;8.3692;
513822008058282;45.7988;-29.8778;8.5156;
513822018058282;45.7500;-29.8412;8.6742;
513822028058282;45.6402;-29.8290;8.8084;
513822038058282;45.6158;-29.7924;8.8206;
513822048058282;45.7256;-29.7802;8.6864;
513822058058282;45.7988;-29.6704;8.6498;
513822068058282;45.7256;-29.6582;8.6620;
513822078058282;45.7622;-29.6216;8.6254;
513822088058282;45.7988;-29.5850;8.6010;
513822098058282;45.7134;-29.5362;8.6864;
513822108058282;45.7622;-29.4874;8.7596;
513822118058282;45.7866;-29.4264;8.8084;
513822128058282;45.7622;-29.3532;8.9670;
513822138058282;45.8110;-29.3410;9.0036;
513822148058282;45.8476;-29.2800;9.0646;
513822158058282;45.9086;-29.2312;8.9792;
513822168058282;46.0550;-29.1702;8.8450;
513822178058282;46.1648;-29.0970;8.7596;
513822188058282;46.2868;-29.0726;8.5888;
513822198058282;46.3234;-29.0116;8.5644;
513822208058282;46.3966;-28.9628;8.4912;
513822218058282;46.3722;-28.9018;8.5522;
513822228058282;46.4210;-28.8408;8.6010;
513822238058282;46.5552;-28.7676;8.6010;
513822248058282;46.4942;-28.7310;8.7474;
513822258058282;46.4942;-28.6944;8.8450;
513822268058282;46.4210;-28.6334;8.9670;
513822278058282;46.2868;-28.6822;9.2476;
513822288058282;46.1648;-28.6822;9.4428;
513822298058282;46.2746;-28.6334;9.3208;
513822308058282;46.3844;-28.5602;9.2232;
513822318058282;46.4210;-28.5358;9.2232;
513822328058282;46.3966;-28.5358;9.2720;
513822338058282;46.2990;-28.5480;9.4184;
513822348058282;46.3844;-28.5236;9.3574;
513822358058282;46.7138;-28.4382;8.9670;
513822368058282;46.9212;-28.4382;8.7596;
513822378058282;46.7260;-28.4870;8.9670;
513822388058282;46.4210;-28.5236;9.3818;
513822398058282;46.0428;-28.5480;9.9064;
513822408058282;45.8476;-28.5358;10.1504;
513822418058282;45.6890;-28.5480;10.3700;
513822428058282;45.5182;-28.5602;10.5896;
513822438058282;45.3474;-28.5846;10.7848;
513822448058282;45.1522;-28.6212;10.9800;
513822458058282;45.2254;-28.6212;10.9800;
513822468058282;45.4084;-28.6334;10.7116;
513822478058282;45.5914;-28.6090;10.4798;
513822488058282;45.7866;-28.6578;10.3334;
513822498058282;46.0428;-28.6700;10.0406;
513822508058282;46.1526;-28.6944;10.0162;
513822518058282;46.0916;-28.7188;10.1016;
513822528058282;46.1526;-28.7310;10.1260;
513822538058282;46.1404;-28.7554;10.1382;
513822548058282;45.9940;-28.8164;10.3456;
513822558058282;45.7866;-28.8774;10.5652;
513822568058282;45.5670;-28.8652;10.7238;
513822578058282;45.2986;-28.9262;11.0654;
513822588058282;45.0668;-28.9872;11.2972;
513822598058282;44.8716;-29.0360;11.5656;
513822608058282;44.5544;-29.0848;11.9072;
513822618058282;44.3714;-29.1824;12.2000;
513822628058282;44.4202;-29.2312;12.1390;
513822638058282;44.5056;-29.3044;12.0780;
513822648058282;44.5910;-29.3654;12.0536;
513822658058282;44.7008;-29.3776;11.8950;
513822668058282;44.8350;-29.3654;11.7242;
513822678058282;45.0058;-29.4264;11.4192;
513822688058282;45.2498;-29.4752;11.0166;
513822698058282;45.3352;-29.4142;10.7970;
513822708058282;45.2864;-29.4264;10.8580;
513822718058282;45.3230;-29.4508;10.7604;
513822728058282;45.3352;-29.4874;10.6506;
513822738058282;45.4938;-29.5362;10.4798;
513822748058282;45.5792;-29.5728;10.4310;
513822758058282;45.5426;-29.5972;10.4676;
513822768058282;45.6036;-29.5972;10.4554;
513822778058282;45.7134;-29.6704;10.4188;
513822788058282;45.7622;-29.6460;10.3822;
513822798058282;45.8354;-29.6216;10.3334;
513822808058282;45.9696;-29.6094;10.2846;
513822818058282;45.9086;-29.6094;10.3944;
513822828058282;45.9086;-29.6094;10.4066;
513822838058282;46.0428;-29.5728;10.3700;
513822848058282;46.0672;-29.5606;10.4554;
513822858058282;46.0062;-29.5850;10.5286;
513822868058282;46.0428;-29.6826;10.4798;
513822878058282;46.0062;-29.7192;10.5286;
513822888058282;45.8598;-29.8046;10.6384;
513822898058282;45.7866;-29.8900;10.6018;
513822908058282;45.7866;-29.9388;10.5774;
513822918058282;45.6768;-30.0852;10.7238;
513822928058282;45.5060;-30.2194;10.8702;
513822938058282;45.3596;-30.2682;11.0410;
513822948058282;45.2254;-30.3658;11.2972;
513822958058282;45.0668;-30.5000;11.4558;
513822968058282;44.8594;-30.6342;11.7364;
513822978058282;44.6886;-30.7318;12.0292;
513822988058282;44.4690;-30.8660;12.2000;
513822998058282;44.2250;-30.9636;12.3708;
513823008058282;44.0298;-31.0612;12.4562;
513823018058282;43.9078;-31.2564;12.4928;
513823028058282;43.7736;-31.3906;12.4318;
513823038058282;43.7126;-31.5370;12.3586;
513823048058282;43.7614;-31.6712;12.2000;
513823058058282;43.6760;-31.8176;12.0902;
513823068058282;43.6272;-32.0128;12.0170;
513823078058282;43.6028;-32.1958;12.0170;
513823088058282;43.6516;-32.3422;11.8950;
513823098058282;43.6760;-32.5008;11.8218;
513823108058282;43.6028;-32.6472;11.9194;
513823118058282;43.6272;-32.7204;11.8706;
513823128058282;43.6394;-32.8424;11.7974;
513823138058282;43.6394;-33.0010;11.7242;
513823148058282;43.9322;-33.0864;11.3094;
513823158058282;44.1152;-33.1474;10.8580;
513823168058282;44.2128;-33.2816;10.5774;
513823178058282;44.3714;-33.3792;10.2358;
513823188058282;44.5788;-33.4768;9.6990;
513823198058282;44.7130;-33.5988;9.3330;
513823208058282;44.8106;-33.6354;8.9670;
513823218058282;44.8960;-33.6720;8.6986;
513823228058282;44.5666;-33.6964;8.9304;
513823238058282;44.3592;-33.7574;9.1988;
513823248058282;44.1762;-33.8062;9.3696;
513823258058282;44.0542;-33.7940;9.3696;
513823268058282;43.8834;-33.8062;9.4916;
513823278058282;43.7248;-33.8184;9.6624;
513823288058282;43.7248;-33.8428;9.6746;
513823298058282;43.7004;-33.8550;9.6746;
513823308058282;43.8224;-33.8916;9.5038;
513823318058282;43.8590;-33.8550;9.3330;
513823328058282;43.9078;-33.8062;9.1256;
513823338058282;43.9200;-33.7818;9.0768;
513823348058282;43.8712;-33.7208;9.0890;
513823358058282;43.7858;-33.6964;9.1134;
513823368058282;43.4686;-33.6598;9.3696;
513823378058282;43.3466;-33.6232;9.5160;
513823388058282;43.1636;-33.5988;9.7356;
513823398058282;43.0660;-33.5866;9.8576;
513823408058282;43.0294;-33.5744;9.8820;
513823418058282;43.0172;-33.5378;9.9186;
513823428058282;43.1880;-33.5134;9.7112;
513823438058282;43.3588;-33.4890;9.3940;
513823448058282;43.5296;-33.4646;9.0280;
513823458058282;43.6516;-33.4402;8.7352;
513823468058282;43.7492;-33.4036;8.5034;
513823478058282;43.9566;-33.3914;8.1496;
513823488058282;44.1518;-33.3670;7.8446;
513823498058282;44.3226;-33.3426;7.5152;
513823508058282;44.3104;-33.3060;7.4664;
513823518058282;44.3592;-33.2572;7.4054;
513823528058282;44.5056;-33.2084;7.3810;
513823538058282;44.6642;-33.1108;7.2590;
513823548058282;44.8716;-33.0620;7.0516;
513823558058282;45.0058;-32.9644;6.9540;
513823568058282;45.1278;-32.8912;6.9418;
513823578058282;45.2132;-32.7448;6.9174;
513823588058282;45.2864;-32.6838;6.8320;
513823598058282;45.3108;-32.5740;6.8564;
513823608058282;45.1522;-32.4520;7.0394;
513823618058282;45.0180;-32.3544;7.2712;
513823628058282;44.8838;-32.2080;7.5762;
513823638058282;44.7374;-32.1470;7.8568;
513823648058282;44.5910;-31.9884;8.1374;
513823658058282;44.6398;-31.9030;8.2350;
513823668058282;44.7740;-31.7322;8.2106;
513823678058282;44.9570;-31.6224;8.1984;
513823688058282;45.1766;-31.5492;7.9910;
513823698058282;45.5670;-31.4272;7.6616;
513823708058282;45.9452;-31.3540;7.2956;
513823718058282;46.2868;-31.2198;6.9174;
513823728058282;46.5552;-31.1344;6.6002;
513823738058282;46.7138;-31.0734;6.4172;
513823748058282;46.9334;-31.0002;6.2708;
513823758058282;46.9944;-30.9514;6.2098;
513823768058282;47.1652;-30.8904;6.0756;
513823778058282;47.1774;-30.8904;6.1122;
513823788058282;47.1042;-30.8172;6.1610;
513823798058282;47.1164;-30.7562;6.2708;
513823808058282;47.1164;-30.7074;6.3196;
513823818058282;47.0432;-30.6708;6.3806;
513823828058282;47.0920;-30.6342;6.4416;
513823838058282;47.0310;-30.5732;6.5026;
513823848058282;47.0066;-30.5000;6.6002;
513823858058282;46.9700;-30.4390;6.6368;
513823868058282;47.0310;-30.4268;6.6002;
513823878058282;47.0920;-30.4756;6.4660;
513823888058282;47.1286;-30.4756;6.3440;
513823898058282;47.1042;-30.4512;6.4538;
513823908058282;47.0676;-30.4634;6.3318;
513823918058282;47.2018;-30.5244;6.1610;
513823928058282;47.3360;-30.5366;5.9170;
513823938058282;47.3604;-30.5610;5.8438;
513823948058282;47.2994;-30.5488;5.8926;
513823958058282;47.1774;-30.5000;5.9536;
513823968058282;47.1286;-30.4878;5.9902;
513823978058282;47.2018;-30.4756;5.8926;
513823988058282;47.1408;-30.4024;5.9902;
513823998058282;46.9090;-30.3902;6.1976;
513824008058282;46.7016;-30.3902;6.4660;
513824018058282;46.5796;-30.3658;6.5880;
513824028058282;46.5064;-30.3902;6.6734;
513824038058282;46.5064;-30.3780;6.7466;
513824048058282;46.4576;-30.3658;6.8564;
513824058058282;46.3478;-30.3658;6.9174;
513824068058282;46.1404;-30.4634;7.1858;
513824078058282;46.0428;-30.4512;7.3322;
513824088058282;45.8476;-30.4512;7.5762;
513824098058282;45.7622;-30.4634;7.6616;
513824108058282;45.6402;-30.4512;7.8080;
513824118058282;45.4206;-30.5000;7.9788;
513824128058282;45.3230;-30.5488;8.0276;
513824138058282;45.2132;-30.6464;8.1008;
513824148058282;45.1522;-30.6586;8.0642;
513824158058282;45.1278;-30.6586;8.0154;
513824168058282;45.0546;-30.6952;7.9666;
513824178058282;44.7740;-30.8050;8.1374;
513824188058282;44.6398;-30.8294;8.1374;
513824198058282;44.5056;-30.8538;8.2350;
513824208058282;44.2860;-30.8416;8.3814;
513824218058282;44.0176;-30.8050;8.5766;
513824228058282;43.9322;-30.7684;8.6376;
513824238058282;43.8224;-30.7684;8.6986;
513824248058282;43.9444;-30.7562;8.5278;
513824258058282;44.1152;-30.6098;8.4058;
513824268058282;44.1396;-30.5732;8.3692;
513824278058282;44.3226;-30.4390;8.2106;
513824288058282;44.3836;-30.3292;8.0764;
513824298058282;44.5544;-30.1706;7.8690;
513824308058282;44.5788;-30.0608;7.7470;
513824318058282;44.7008;-29.9144;7.6494;
513824328058282;44.6154;-29.7802;7.7470;
513824338058282;44.6276;-29.6582;7.7104;
513824348058282;44.7618;-29.5118;7.6250;
513824358058282;44.7374;-29.4264;7.5640;
513824368058282;44.8228;-29.3166;7.6006;
513824378058282;44.8716;-29.1824;7.6006;
513824388058282;44.9814;-29.0482;7.5152;
513824398058282;45.0424;-28.9140;7.4298;
513824408058282;45.1766;-28.7554;7.3444;
513824418058282;45.3108;-28.6578;7.2468;
513824428058282;45.2742;-28.5236;7.2712;
513824438058282;45.3718;-28.3040;7.1980;
513824448058282;45.4450;-28.1820;7.0638;
513824458058282;45.4938;-28.0844;7.0150;
513824468058282;45.4816;-27.9746;7.0272;
513824478058282;45.5914;-27.8038;6.9174;
513824488058282;45.6280;-27.6696;6.7710;
513824498058282;45.6646;-27.5354;6.6734;
513824508058282;45.7866;-27.3890;6.4660;
513824518058282;45.8354;-27.2914;6.4050;
513824528058282;45.8842;-27.1084;6.3074;
513824538058282;45.9330;-26.9498;6.1976;
513824548058282;45.9696;-26.7790;6.1610;
513824558058282;45.8354;-26.6814;6.2464;
513824568058282;45.7744;-26.5228;6.3562;
513824578058282;45.7500;-26.3520;6.4172;
513824588058282;45.6524;-26.2178;6.5758;
513824598058282;45.5670;-26.0592;6.6368;
513824608058282;45.6524;-25.8884;6.5636;
513824618058282;45.6402;-25.7542;6.5148;
513824628058282;45.6768;-25.5956;6.3928;
513824638058282;45.7500;-25.4370;6.2586;
513824648058282;45.7622;-25.2418;6.1488;
513824658058282;45.6402;-25.0100;6.2098;
513824668058282;45.5182;-24.8514;6.2098;
513824678058282;45.4206;-24.7050;6.2952;
513824688058282;45.2132;-24.5830;6.4416;
513824698058282;45.0912;-24.3634;6.6124;
513824708058282;44.9692;-24.2170;6.7710;
513824718058282;44.8716;-24.0584;6.8442;
513824728058282;44.7496;-23.9608;7.0028;
513824738058282;44.6398;-23.9120;7.1126;
513824748058282;44.5422;-23.7900;7.2956;
513824758058282;44.4568;-23.7412;7.3688;
513824768058282;44.4080;-23.6924;7.3932;
513824778058282;44.2494;-23.7168;7.6128;
513824788058282;44.3714;-23.6924;7.4542;
513824798058282;44.1152;-23.6558;7.8080;
513824808058282;43.8834;-23.6436;8.0886;
513824818058282;43.6638;-23.6314;8.3082;
513824828058282;43.5174;-23.6680;8.4546;
513824838058282;43.3222;-23.6680;8.6498;
513824848058282;43.1026;-23.6924;8.8694;
513824858058282;42.9684;-23.6680;8.9426;
513824868058282;42.5414;-23.7168;9.3452;
513824878058282;42.4316;-23.7534;9.3696;
513824888058282;42.3462;-23.8388;9.3574;
513824898058282;42.2608;-23.9486;9.3818;
513824908058282;42.1510;-23.9608;9.3696;
513824918058282;41.9924;-23.9730;9.5038;
513824928058282;41.9924;-23.9486;9.4550;
513824938058282;42.0168;-24.0218;9.3818;
513824948058282;42.0778;-24.0218;9.2842;
513824958058282;42.1388;-24.0218;9.0646;
513824968058282;42.2364;-23.9364;8.9060;
513824978058282;42.2730;-23.8632;8.6620;
513824988058282;42.3340;-23.8144;8.4546;
513824998058282;42.4072;-23.7778;8.1862;
513825008058282;42.3706;-23.7656;8.1252;
513825018058282;42.2852;-23.6314;8.1374;
513825028058282;42.1022;-23.5460;8.2838;
513825038058282;41.9436;-23.4484;8.3692;
513825048058282;41.8094;-23.3874;8.4302;
513825058058282;41.6508;-23.2776;8.6742;
513825068058282;41.4678;-23.2166;8.8450;
513825078058282;41.4434;-23.0824;8.8450;
513825088058282;41.3214;-22.9726;8.8816;
513825098058282;41.1994;-22.9238;8.9060;
513825108058282;41.1872;-22.9116;8.8938;
513825118058282;41.1994;-22.8384;8.9548;
513825128058282;41.2970;-22.7530;8.7962;
513825138058282;41.5166;-22.6676;8.4668;
513825148058282;41.6630;-22.6432;8.2350;
513825158058282;41.5654;-22.6676;8.3326;
513825168058282;41.3580;-22.6310;8.4912;
513825178058282;41.2238;-22.6188;8.5888;
513825188058282;41.0774;-22.6432;8.6986;
513825198058282;40.9188;-22.6920;8.7352;
513825208058282;40.6748;-22.7530;9.0280;
513825218058282;40.3454;-22.8506;9.3574;
513825228058282;40.1380;-22.8506;9.6746;
513825238058282;40.0038;-22.8872;9.8576;
513825248058282;39.9672;-22.9604;9.9796;
513825258058282;39.9672;-23.0336;10.0772;
513825268058282;39.9306;-23.0336;10.1504;
513825278058282;39.7964;-23.0580;10.3944;
513825288058282;39.8574;-23.0458;10.3456;
513825298058282;39.9916;-23.0702;10.3334;
513825308058282;40.2234;-23.0946;10.1870;
513825318058282;40.3698;-23.0214;10.1138;
513825328058282;40.5162;-22.9970;10.0772;
513825338058282;40.3820;-22.9848;10.2968;
513825348058282;40.5040;-22.9604;10.3456;
513825358058282;40.7114;-22.9116;10.2968;
513825368058282;40.7602;-22.8994;10.4554;
513825378058282;40.7236;-22.8750;10.5896;
513825388058282;40.5040;-22.8384;10.9312;
513825398058282;40.4674;-22.8872;11.1264;
513825408058282;40.4918;-22.9238;11.2850;
513825418058282;40.6992;-22.9482;11.2118;
513825428058282;40.6992;-22.9726;11.3704;
513825438058282;40.7358;-22.9970;11.4802;
513825448058282;40.7358;-23.0458;11.6022;
513825458058282;40.8212;-23.0824;11.7242;
513825468058282;40.9310;-23.1922;11.7608;
513825478058282;40.9798;-23.2410;11.8584;
513825488058282;40.9920;-23.3508;11.9926;
513825498058282;41.0164;-23.3752;12.1512;
513825508058282;41.0286;-23.4606;12.2488;
513825518058282;40.9676;-23.6192;12.3952;
513825528058282;40.9066;-23.7534;12.5538;
513825538058282;40.8334;-23.8754;12.7368;
513825548058282;40.8334;-23.9486;12.9198;
513825558058282;40.7602;-24.0706;13.0784;
513825568058282;40.6992;-24.1316;13.1516;
513825578058282;40.7846;-24.2902;13.0418;
513825588058282;41.0042;-24.4244;12.8832;
513825598058282;41.2238;-24.4732;12.7002;
513825608058282;41.4556;-24.5952;12.5050;
513825618058282;41.6752;-24.6806;12.2854;
513825628058282;41.8704;-24.7782;12.0780;
513825638058282;42.0900;-24.9002;11.8828;
513825648058282;42.2242;-25.0466;11.8584;
513825658058282;42.3462;-25.1198;11.9072;
513825668058282;42.3218;-25.2174;11.9316;
513825678058282;42.3462;-25.3638;12.1390;
513825688058282;42.3096;-25.4370;12.3220;
513825698058282;42.2120;-25.5712;12.5538;
513825708058282;42.1144;-25.7176;12.8710;
513825718058282;42.0168;-25.8274;13.1882;
513825728058282;42.0656;-25.9250;13.3468;
513825738058282;42.0290;-26.0104;13.6030;
513825748058282;42.0534;-26.1202;13.9568;
513825758058282;42.0168;-26.2056;14.1154;
513825768058282;42.0046;-26.3276;14.3472;
513825778058282;42.2852;-26.4374;14.3594;
513825788058282;42.4804;-26.5594;14.2862;
513825798058282;42.7244;-26.6936;14.2374;
513825808058282;42.8586;-26.7668;14.2252;
513825818058282;43.0538;-26.9498;14.1642;
513825828058282;43.2978;-27.0596;13.9812;
513825838058282;43.6394;-27.1938;13.7860;
513825848058282;43.8590;-27.3524;13.6396;
513825858058282;43.9200;-27.5110;13.6396;
513825868058282;44.1640;-27.6208;13.5054;
513825878058282;44.4202;-27.7184;13.2980;
513825888058282;44.5422;-27.8526;13.2492;
513825898058282;44.6276;-27.9624;13.2492;
513825908058282;44.6154;-28.1210;13.2980;
513825918058282;44.5056;-28.2796;13.4810;
513825928058282;44.5910;-28.3894;13.4078;
513825938058282;44.6276;-28.4748;13.4078;
513825948058282;44.5056;-28.6334;13.6030;
513825958058282;44.3348;-28.8164;13.7738;
513825968058282;44.3592;-28.9628;13.7128;
513825978058282;44.3104;-29.0482;13.7250;
513825988058282;44.2250;-29.1580;13.8104;
513825998058282;44.1640;-29.2678;13.7738;
513826008058282;44.0542;-29.3898;13.9324;
513826018058282;43.9322;-29.5118;14.0422;
513826028058282;43.9200;-29.5606;13.9568;
513826038058282;43.8224;-29.6094;14.0178;
513826048058282;43.7614;-29.6704;14.1520;
513826058058282;43.7980;-29.7680;14.1398;
513826068058282;43.8102;-29.8534;14.1154;
513826078058282;43.8224;-29.9388;14.1276;
513826088058282;43.8590;-29.9754;14.0910;
513826098058282;43.8590;-30.0608;14.1154;
513826108058282;43.8590;-30.1340;14.1276;
513826118058282;43.8224;-30.1950;14.1032;
513826128058282;43.8224;-30.2682;14.0300;
513826138058282;43.7980;-30.3170;14.0422;
513826148058282;43.7858;-30.3780;14.0178;
513826158058282;43.7614;-30.4390;13.9934;
513826168058282;43.7004;-30.4756;13.9324;
513826178058282;43.6394;-30.5000;13.8470;
513826188058282;43.5540;-30.5976;13.8470;
513826198058282;43.5418;-30.6952;13.7616;
513826208058282;43.5052;-30.8294;13.7250;
513826218058282;43.4808;-30.9148;13.5176;
513826228058282;43.5418;-30.9880;13.3102;
513826238058282;43.5906;-31.0734;13.1394;
513826248058282;43.6638;-31.1832;13.0296;
513826258058282;43.7614;-31.2808;12.8710;
513826268058282;43.7980;-31.3418;12.8466;
513826278058282;43.8102;-31.3906;12.8222;
513826288058282;43.8346;-31.4272;12.7612;
513826298058282;43.7858;-31.5004;12.8832;
513826308058282;43.6150;-31.5492;13.1272;
513826318058282;43.5052;-31.5980;13.2736;
513826328058282;43.2612;-31.6834;13.5298;
513826338058282;43.1148;-31.7444;13.7006;
513826348058282;42.9806;-31.8298;13.7860;
513826358058282;42.8708;-31.8786;13.8226;
513826368058282;42.7244;-31.9518;13.9812;
513826378058282;42.6390;-31.9884;14.0544;
513826388058282;42.6634;-32.0006;13.9934;
513826398058282;42.6024;-32.0372;13.9690;
513826408058282;42.7122;-31.9762;13.8104;
513826418058282;42.7610;-31.9640;13.7250;
513826428058282;43.0172;-31.9152;13.4566;
513826438058282;43.3222;-31.9030;13.1760;
513826448058282;43.6028;-31.7810;12.8222;
513826458058282;43.8712;-31.7322;12.5538;
513826468058282;44.0176;-31.6956;12.4318;
513826478058282;44.4202;-31.6102;12.1268;
513826488058282;44.6642;-31.5614;11.9194;
513826498058282;44.9570;-31.4760;11.6754;
513826508058282;45.0302;-31.4760;11.6022;
513826518058282;45.1644;-31.4028;11.5168;
513826528058282;45.1644;-31.4272;11.6144;
513826538058282;45.0912;-31.3540;11.7120;
513826548058282;45.1400;-31.3052;11.6754;
513826558058282;44.8960;-31.2686;11.8584;
513826568058282;44.8106;-31.2198;11.9682;
513826578058282;44.7130;-31.2076;12.0902;
513826588058282;44.6154;-31.1344;12.1878;
513826598058282;44.3592;-31.0856;12.4806;
513826608058282;44.3348;-31.0612;12.4440;
513826618058282;44.2860;-31.0490;12.4928;
513826628058282;44.3348;-31.0490;12.4562;
513826638058282;44.4080;-31.0856;12.4074;
513826648058282;44.4812;-31.0612;12.3586;
513826658058282;44.5056;-31.0734;12.3098;
513826668058282;44.5666;-31.1100;12.2610;
513826678058282;44.6886;-31.1100;12.1146;
513826688058282;44.8350;-31.0856;11.9804;
513826698058282;45.0546;-31.0490;11.8462;
513826708058282;45.1522;-31.0490;11.7120;
513826718058282;45.3718;-30.9880;11.4924;
513826728058282;45.4572;-31.0002;11.3704;
513826738058282;45.4938;-31.0002;11.2728;
513826748058282;45.5304;-30.9636;11.2606;
513826758058282;45.5792;-30.9758;11.2240;
513826768058282;45.4328;-31.0124;11.3582;
513826778058282;45.4450;-30.9880;11.3460;
513826788058282;45.3230;-30.9880;11.5046;
513826798058282;45.1888;-30.9758;11.6632;
513826808058282;45.1522;-30.9636;11.7120;
513826818058282;45.2376;-30.9026;11.6510;
513826828058282;45.3108;-30.8538;11.6022;
513826838058282;45.3108;-30.7806;11.6266;
513826848058282;45.4694;-30.7196;11.5290;
513826858058282;45.3596;-30.7318;11.6876;
513826868058282;45.3352;-30.6708;11.7120;
513826878058282;45.2376;-30.6586;11.8706;
513826888058282;45.1400;-30.6708;12.0414;
513826898058282;45.0424;-30.6708;12.2244;
513826908058282;44.8106;-30.7074;12.5416;
513826918058282;44.6642;-30.7318;12.7002;
513826928058282;44.5422;-30.7074;12.8588;
513826938058282;44.6154;-30.7074;12.7734;
513826948058282;44.7862;-30.7074;12.5172;
513826958058282;44.9692;-30.6952;12.3098;
513826968058282;45.1400;-30.7318;12.1512;
513826978058282;45.1400;-30.7440;12.1390;
513826988058282;45.2132;-30.7440;12.0414;
513826998058282;45.3108;-30.7684;11.9926;
513827008058282;45.2864;-30.7928;12.0292;
513827018058282;45.1400;-30.8050;12.1024;
513827028058282;44.9448;-30.8660;12.4074;
513827038058282;44.7984;-30.9026;12.3952;
513827048058282;44.4690;-30.9270;12.6758;
513827058058282;44.3348;-30.9148;12.7734;
513827068058282;44.3470;-30.9148;12.6758;
513827078058282;44.1762;-30.9270;12.7978;
513827088058282;43.9932;-31.0124;12.8710;
513827098058282;43.9566;-31.0612;12.8832;
513827108058282;43.9200;-31.0612;12.8832;
513827118058282;43.8346;-31.0978;13.0296;
513827128058282;43.8834;-31.0856;12.9198;
513827138058282;43.8346;-31.1466;12.9808;
513827148058282;43.7248;-31.2320;13.0662;
513827158058282;43.8590;-31.2808;12.8954;
513827168058282;43.9932;-31.2442;12.7856;
513827178058282;43.9810;-31.2930;12.7734;
513827188058282;44.0786;-31.3784;12.5294;
513827198058282;44.1030;-31.4150;12.4562;
513827208058282;44.1884;-31.4516;12.3586;
513827218058282;44.2982;-31.4760;12.1024;
513827228058282;44.4934;-31.4516;11.8706;
513827238058282;44.5422;-31.4516;11.7608;
513827248058282;44.4812;-31.5126;11.7486;
513827258058282;44.5300;-31.4882;11.6998;
513827268058282;44.4202;-31.4516;11.8218;
513827278058282;44.4202;-31.4882;11.8340;
513827288058282;44.3836;-31.5370;11.8096;
513827298058282;44.3470;-31.5492;11.8340;
513827308058282;44.2372;-31.5980;11.8584;
513827318058282;44.1152;-31.6468;11.9926;
513827328058282;44.3104;-31.6834;11.8096;
513827338058282;44.3714;-31.7688;11.6144;
513827348058282;44.5422;-31.8420;11.4924;
513827358058282;44.5300;-31.8542;11.4314;
513827368058282;44.5666;-31.8908;11.3460;
513827378058282;44.5788;-31.9274;11.3460;
513827388058282;44.6642;-32.0006;11.2606;
513827398058282;44.7130;-32.0494;11.0166;
513827408058282;44.5910;-32.0372;11.0166;
513827418058282;44.5666;-32.0616;11.0410;
513827428058282;44.3592;-32.0860;11.0898;
513827438058282;44.3226;-32.1470;11.0898;
513827448058282;44.2494;-32.1470;11.1508;
513827458058282;44.2250;-32.1714;11.1264;
513827468058282;43.9810;-32.1836;11.3338;
513827478058282;43.8468;-32.1958;11.6144;
513827488058282;43.6882;-32.2568;11.7974;
513827498058282;43.5174;-32.2690;11.9682;
513827508058282;43.5418;-32.2202;11.9072;
513827518058282;43.5540;-32.1836;11.8706;
513827528058282;43.6272;-32.1958;11.7852;
513827538058282;43.6760;-32.1958;11.6998;
513827548058282;43.8712;-32.1348;11.5412;
513827558058282;43.9444;-32.0982;11.4680;
513827568058282;43.9322;-32.0738;11.4192;
513827578058282;43.9810;-32.0494;11.4314;
513827588058282;44.0908;-32.0616;11.3460;
513827598058282;44.2006;-32.0616;11.2118;
513827608058282;44.3226;-32.0372;11.0898;
513827618058282;44.4446;-32.0006;10.9678;
513827628058282;44.5178;-31.9884;10.8580;
513827638058282;44.6398;-32.0372;10.5652;
513827648058282;44.8716;-32.0616;10.3456;
513827658058282;45.0668;-32.0494;10.0650;
513827668058282;45.0424;-32.0860;10.0406;
513827678058282;45.0302;-32.1104;9.9918;
513827688058282;44.9082;-32.1470;9.9430;
513827698058282;44.8228;-32.1958;9.9674;
513827708058282;44.7496;-32.2812;10.0284;
513827718058282;44.6886;-32.2812;10.0284;
513827728058282;44.6398;-32.3544;10.0162;
513827738058282;44.5056;-32.4886;9.9552;
513827748058282;44.4080;-32.5984;9.9552;
513827758058282;44.3470;-32.6472;10.0040;
513827768058282;44.3592;-32.7204;10.0162;
513827778058282;44.2738;-32.7448;10.0162;
513827788058282;44.2128;-32.7814;9.9308;
513827798058282;44.0786;-32.8546;10.0284;
513827808058282;43.9444;-32.8546;10.1260;
513827818058282;43.9078;-32.8180;10.2358;
513827828058282;43.9322;-32.7692;10.2358;
513827838058282;43.8712;-32.7692;10.2480;
513827848058282;43.7004;-32.7814;10.3822;
513827858058282;43.7126;-32.8058;10.3822;
513827868058282;43.6760;-32.8302;10.4554;
513827878058282;43.7126;-32.7814;10.4066;
513827888058282;43.6516;-32.7814;10.3456;
513827898058282;43.6760;-32.8302;10.2968;
513827908058282;43.7492;-32.8424;10.2236;
513827918058282;43.7980;-32.8180;10.1260;
513827928058282;43.9688;-32.7936;10.0040;
513827938058282;43.9810;-32.7570;10.0650;
513827948058282;44.1152;-32.6716;9.9796;
513827958058282;44.3348;-32.6228;9.8088;
513827968058282;44.6764;-32.6106;9.6136;
513827978058282;44.9082;-32.5130;9.4672;
513827988058282;45.0546;-32.4520;9.4184;
513827998058282;45.2132;-32.3910;9.4062;
513828008058282;45.3840;-32.3422;9.3818;
513828018058282;45.5060;-32.3544;9.2720;
513828028058282;45.6402;-32.3788;9.2842;
513828038058282;45.6280;-32.4398;9.4062;
513828048058282;45.5548;-32.4154;9.5648;
513828058058282;45.6402;-32.4032;9.5892;
513828068058282;45.5426;-32.4520;9.7600;
513828078058282;45.4450;-32.5252;9.9674;
513828088058282;45.2864;-32.5740;10.1626;
513828098058282;45.2498;-32.5740;10.3090;
513828108058282;45.1278;-32.5496;10.4310;
513828118058282;45.1278;-32.5496;10.5530;
513828128058282;45.1766;-32.5740;10.5774;
513828138058282;44.9204;-32.6838;10.8214;
513828148058282;44.9814;-32.7082;10.7848;
513828158058282;45.1400;-32.7082;10.6872;
513828168058282;45.3230;-32.7936;10.4676;
513828178058282;45.3596;-32.9156;10.4188;
513828188058282;45.3596;-33.0620;10.3822;
513828198058282;45.2742;-33.1474;10.2846;
513828208058282;45.1644;-33.2938;10.3212;
513828218058282;45.1644;-33.3182;10.2358;
513828228058282;45.0668;-33.4158;10.3090;
513828238058282;44.9082;-33.4768;10.2846;
513828248058282;44.7984;-33.4890;10.4066;
513828258058282;44.7862;-33.4890;10.3456;
513828268058282;44.7618;-33.5134;10.3944;
513828278058282;44.6886;-33.5134;10.5652;
513828288058282;44.5788;-33.4402;10.7116;
513828298058282;44.4446;-33.4524;10.9312;
513828308058282;44.2982;-33.4036;11.1264;
513828318058282;44.0786;-33.4280;11.4070;
513828328058282;43.9566;-33.4158;11.5534;
513828338058282;43.7736;-33.3792;11.7852;
513828348058282;43.6150;-33.3548;11.9804;
513828358058282;43.5784;-33.3426;12.1146;
513828368058282;43.4808;-33.4158;12.2610;
513828378058282;42.9928;-33.4036;12.8344;
513828388058282;43.2856;-34.2698;12.4928;
513828398058282;43.4686;-34.2210;12.4074;
513828408058282;43.4808;-34.2088;12.4074;
513828418058282;43.5540;-34.1966;12.3464;
513828428058282;43.6516;-34.1234;12.2976;
513828438058282;43.6272;-34.1112;12.2610;
513828448058282;43.7370;-34.0258;12.1878;
513828458058282;44.3592;-33.9404;11.5412;
513828468058282;44.4202;-33.9282;11.4802;
513828478058282;44.2494;-33.9282;11.6632;
513828488058282;43.9566;-33.9282;11.9804;
513828498058282;43.7980;-33.9770;12.1268;
513828508058282;43.6638;-34.0502;12.2488;
513828518058282;43.5662;-34.0990;12.3464;
513828528058282;43.4808;-34.1722;12.4440;
513828538058282;43.3832;-34.2698;12.5050;
513828548058282;43.4564;-34.3430;12.4318;
513828558058282;43.5540;-34.4406;12.3830;
513828568058282;43.6394;-34.5260;12.2122;
513828578058282;43.6150;-34.5504;12.3098;
513828588058282;43.5296;-34.6358;12.3586;
513828598058282;43.4442;-34.7212;12.3830;
513828608058282;43.3222;-34.7944;12.4684;
513828618058282;43.1514;-34.9286;12.6148;
513828628058282;42.9440;-34.9896;12.8222;
513828638058282;42.7732;-35.0506;12.8954;
513828648058282;42.7366;-35.1116;12.8954;
513828658058282;42.6268;-35.2092;12.9564;
513828668058282;42.5536;-35.2458;12.9930;
513828678058282;42.5292;-35.2824;13.0296;
513828688058282;42.4682;-35.3068;13.0662;
513828698058282;42.4438;-35.2702;13.0418;
513828708058282;42.3828;-35.3068;13.0662;
513828718058282;42.3096;-35.3068;13.1028;
513828728058282;42.1632;-35.3190;13.2370;
513828738058282;42.0900;-35.3678;13.1516;
513828748058282;42.0656;-35.3922;13.2004;
513828758058282;41.9924;-35.3800;13.2736;
513828768058282;41.8460;-35.4166;13.4078;
513828778058282;41.7606;-35.4776;13.5176;
513828788058282;41.7362;-35.5264;13.4932;
513828798058282;41.6630;-35.5630;13.5786;
513828808058282;41.6386;-35.6118;13.6396;
513828818058282;41.6020;-35.5996;13.7372;
513828828058282;41.5166;-35.6606;13.8714;
513828838058282;41.4556;-35.6972;13.9446;
513828848058282;41.5166;-35.6972;13.8226;
513828858058282;41.4434;-35.7460;13.8714;
513828868058282;41.3092;-35.7338;14.0544;
513828878058282;41.2848;-35.7948;14.0666;
513828888058282;41.3336;-35.7704;13.9690;
513828898058282;41.3214;-35.7826;14.0300;
513828908058282;41.4312;-35.7948;13.8470;
513828918058282;41.6142;-35.7948;13.6762;
513828928058282;41.5898;-35.8070;13.7006;
513828938058282;41.6630;-35.7582;13.6030;
513828948058282;41.7972;-35.7826;13.4566;
513828958058282;41.9314;-35.7826;13.2980;
513828968058282;42.0412;-35.7826;13.0906;
513828978058282;42.3096;-35.7704;12.7612;
513828988058282;42.4316;-35.7216;12.4928;
513828998058282;42.4804;-35.7216;12.2610;
513829008058282;42.6512;-35.7704;11.9438;
513829018058282;42.6756;-35.7948;11.8340;
513829028058282;42.7122;-35.8314;11.6632;
513829038058282;42.7366;-35.8680;11.4314;
513829048058282;42.7732;-35.9046;11.2362;
513829058058282;42.6390;-35.9412;11.1630;
513829068058282;42.5780;-36.0022;11.1264;
513829078058282;42.4926;-36.0632;11.0654;
513829088058282;42.4804;-36.0632;10.9068;
513829098058282;42.4926;-36.0754;10.7726;
513829108058282;42.5536;-36.0632;10.5286;
513829118058282;42.5780;-36.0632;10.3578;
513829128058282;42.5170;-36.0754;10.2846;
513829138058282;42.4804;-36.0876;10.1870;
513829148058282;42.4682;-36.0998;10.1016;
513829158058282;42.6878;-36.0632;9.7356;
513829168058282;42.8586;-36.0632;9.4428;
513829178058282;43.0294;-36.0510;9.0036;
513829188058282;42.9928;-36.0754;8.8572;
513829198058282;42.9806;-36.0266;8.8572;
513829208058282;43.0416;-35.9900;8.6986;
513829218058282;43.1758;-35.9534;8.5644;
513829228058282;43.2978;-35.8680;8.3692;
513829238058282;43.1026;-35.8192;8.4546;
513829248058282;43.0660;-35.7216;8.3814;
513829258058282;43.1148;-35.6484;8.3692;
513829268058282;43.0660;-35.5386;8.2838;
513829278058282;43.1392;-35.4654;8.1008;
513829288058282;43.0904;-35.4044;8.0398;
513829298058282;43.0782;-35.3434;7.8202;
513829308058282;43.0538;-35.2580;7.6860;
513829318058282;43.1514;-35.2580;7.3810;
513829328058282;43.0538;-35.2458;7.4176;
513829338058282;42.8830;-35.1970;7.3932;
513829348058282;42.9318;-35.1482;7.2590;
513829358058282;42.8952;-35.1482;7.1614;
513829368058282;42.8952;-35.0872;7.0882;
513829378058282;42.8708;-34.9896;7.1614;
513829388058282;42.7732;-34.9286;7.1736;
513829398058282;42.7366;-34.7944;7.2956;
513829408058282;42.8342;-34.6724;7.1858;
513829418058282;42.8708;-34.6236;7.1980;
513829428058282;42.9318;-34.5626;7.2102;
513829438058282;43.0416;-34.4406;7.1614;
513829448058282;43.2002;-34.3674;6.9418;
513829458058282;44.6520;-31.4028;5.4778;
513829468058282;44.8594;-31.3662;5.3070;
513829478058282;44.9570;-31.2930;5.1362;
513829488058282;45.0912;-31.2564;5.0020;
513829498058282;45.3108;-31.2198;4.7214;
513829508058282;45.3840;-31.1344;4.6726;
513829518058282;45.4572;-31.0490;4.5506;
513829528058282;45.5060;-30.9636;4.6238;
513829538058282;45.5792;-30.9026;4.5384;
513829548058282;45.7500;-30.8782;4.3676;
513829558058282;45.8232;-30.8660;4.4530;
513829568058282;45.8598;-30.8172;4.4042;
513829578058282;45.8232;-30.7562;4.5262;
513829588058282;45.9452;-30.7440;4.4042;
513829598058282;46.0306;-30.7562;4.3066;
513829608058282;46.0794;-30.7562;4.2090;
513829618058282;46.0672;-30.7562;4.2334;
513829628058282;46.0428;-30.6830;4.2212;
513829638058282;46.3234;-30.6586;3.7454;
513829648058282;46.3112;-31.6590;3.5990;
513829658058282;46.3600;-31.6224;3.4404;
513829668058282;46.4088;-31.5858;3.3184;
513829678058282;46.4698;-31.5492;3.1598;
513829688058282;46.5430;-31.5248;3.0378;
513829698058282;46.5796;-31.4638;2.9646;
513829708058282;46.4820;-31.4638;3.0012;
513829718058282;46.2014;-31.4394;3.2208;
513829728058282;46.3600;-31.4150;3.0256;
513829738058282;46.4820;-31.3662;2.7938;
513829748058282;46.6040;-31.3174;2.6230;
513829758058282;46.6162;-31.3052;2.5132;
513829768058282;46.6162;-31.3174;2.4400;
513829778058282;46.6772;-31.2930;2.2692;
513829788058282;46.7748;-31.3540;2.1106;
513829798058282;46.9700;-31.3296;2.0130;
513829808058282;47.0432;-31.3418;1.8056;
513829818058282;47.1286;-31.3418;1.6836;
513829828058282;47.2018;-31.3906;1.5738;
513829838058282;47.1896;-31.4028;1.5860;
513829848058282;47.1896;-31.3906;1.6348;
513829858058282;47.1408;-31.4394;1.5982;
513829868058282;47.1286;-31.4150;1.6348;
513829878058282;47.0188;-31.4272;1.6226;
513829888058282;46.8358;-31.4882;1.7690;
513829898058282;46.6040;-31.5736;2.0374;
513829908058282;46.3356;-31.5858;2.2692;
513829918058282;46.2258;-31.6102;2.3790;
513829928058282;46.2258;-31.6102;2.3058;
513829938058282;46.1892;-31.6712;2.3302;
513829948058282;46.1282;-31.6834;2.3790;
513829958058282;46.1282;-31.7200;2.3912;
513829968058282;46.2502;-31.6956;2.2448;
513829978058282;46.3722;-31.6834;2.0984;
513829988058282;46.5430;-31.7078;1.8178;
513829998058282;46.7138;-31.7444;1.6348;
513830008058282;46.7016;-31.7444;1.7080;
513830018058282;46.7138;-31.7200;1.5738;
513830028058282;46.8724;-31.7932;1.2932;
513830038058282;46.9578;-31.8664;1.0736;
513830048058282;46.8846;-31.9640;1.0858;
513830058058282;46.8968;-31.9640;1.0492;
513830068058282;46.8114;-31.9762;1.1468;
513830078058282;46.7626;-32.0006;1.1468;
513830088058282;46.7016;-32.0982;1.0614;
513830098058282;46.6650;-32.1714;1.1224;
513830108058282;46.6040;-32.1836;1.1102;
513830118058282;46.4942;-32.1958;1.1834;
513830128058282;46.5430;-32.1958;1.1468;
513830138058282;46.4454;-32.2812;1.2322;
513830148058282;46.4088;-32.3422;1.2688;
513830158058282;46.2868;-32.4032;1.3420;
513830168058282;46.1770;-32.3788;1.4152;
513830178058282;46.1160;-32.4032;1.4030;
513830188058282;45.9452;-32.4154;1.5860;
513830198058282;45.8354;-32.4642;1.6958;
513830208058282;45.7500;-32.4886;1.7690;
513830218058282;45.7134;-32.5130;1.7324;
513830228058282;45.6768;-32.4886;1.7202;
513830238058282;45.6890;-32.5008;1.7812;
513830248058282;45.8110;-32.5862;1.6836;
513830258058282;45.8232;-32.5740;1.7812;
513830268058282;45.9818;-32.5740;1.6226;
513830278058282;45.9940;-32.5374;1.6348;
513830288058282;45.9452;-32.5496;1.5616;
513830298058282;45.9330;-32.5130;1.6104;
513830308058282;45.8110;-32.5496;1.7202;
513830318058282;45.7256;-32.5374;1.7446;
513830328058282;45.6280;-32.5374;1.8300;
513830338058282;45.6646;-32.5374;1.7446;
513830348058282;45.6646;-32.5252;1.6470;
513830358058282;45.8110;-32.5618;1.4762;
513830368058282;45.9452;-32.5374;1.3420;
513830378058282;45.9940;-32.5740;1.1468;
513830388058282;46.0428;-32.6228;1.0614;
513830398058282;46.0672;-32.6594;0.9516;
513830408058282;46.0428;-32.6472;0.9150;
513830418058282;45.9452;-32.6716;1.0126;
513830428058282;45.9086;-32.7082;1.1346;
513830438058282;45.8476;-32.7326;1.1712;
513830448058282;45.7866;-32.7448;1.2810;
513830458058282;45.6768;-32.7326;1.4152;
513830468058282;45.8232;-32.6960;1.2688;
513830478058282;45.8964;-32.6960;1.1712;
513830488058282;46.0062;-32.6838;0.9760;
513830498058282;45.9940;-32.6716;0.9028;
513830508058282;45.9330;-32.6716;0.9760;
513830518058282;45.7988;-32.6838;1.1834;
513830528058282;45.7378;-32.6716;1.2200;
513830538058282;45.7744;-32.7326;1.1956;
513830548058282;45.6524;-32.7448;1.3908;
513830558058282;45.5426;-32.7326;1.5128;
513830568058282;45.4084;-32.8180;1.7568;
513830578058282;45.2986;-32.9034;1.8910;
513830588058282;45.2132;-32.9644;1.8788;
513830598058282;45.3108;-33.0010;1.6348;
513830608058282;45.2254;-33.0742;1.6592;
513830618058282;45.1766;-33.0742;1.6104;
513830628058282;45.2742;-33.1108;1.2444;
513830638058282;45.4084;-33.1474;0.9150;
513830648058282;45.6768;-33.1352;0.5368;
513830658058282;45.9330;-33.0864;0.0854;
513830668058282;46.1160;-33.0742;-0.2196;
513830678058282;46.2868;-33.0498;-0.4636;
513830688058282;46.5064;-33.0498;-0.8052;
513830698058282;46.5308;-33.1108;-0.9638;
