Sensor: mmc5603x Magnetometer Non-wakeup
Vendor: memsic
TimestampMag [ns]; MagX [uT]; MagY [uT]; MagZ [uT]
5253018679937225;45.7500;-13.6274;-0.8296;
5253018689937225;45.7500;-13.6274;-0.8296;
5253018701330454;45.6524;-13.6396;-0.4758;
5253018711330454;45.6280;-13.7372;-0.5490;
5253018721330454;45.4572;-13.7372;-0.2440;
5253018731330454;45.2498;-13.7738;0.0122;
5253018741330454;45.2376;-13.7616;0.0000;
5253018751330454;45.2864;-13.7616;-0.0244;
5253018761330454;45.2986;-13.8226;0.0244;
5253018771330454;45.2132;-13.8714;0.1830;
5253018781330454;45.1644;-13.8836;0.1464;
5253018791330454;45.0668;-13.8836;0.3050;
5253018801330454;45.2132;-13.8958;0.0366;
5253018811330454;45.5060;-13.8958;-0.3050;
5253018821330454;45.6646;-13.9324;-0.5124;
5253018831330454;45.7256;-13.9568;-0.6710;
5253018841330454;45.7866;-13.9324;-0.8296;
5253018851330454;45.8476;-13.9324;-0.9760;
5253018861330454;45.8476;-13.9812;-1.0492;
5253018871330454;45.8964;-14.0056;-1.1224;
5253018881330454;45.7866;-14.0422;-1.0004;
5253018891330454;45.6402;-14.0788;-0.8662;
5253018901330454;45.4206;-14.1154;-0.4880;
5253018911330454;45.2376;-14.1886;-0.2318;
5253018921330454;45.0180;-14.2008;0.0854;
5253018931330454;44.8594;-14.2252;0.3050;
5253018941330454;44.8716;-14.2374;0.4026;
5253018951330454;44.9204;-14.2740;0.3660;
5253018961330454;44.8838;-14.2984;0.4758;
5253018971330454;44.7740;-14.3228;0.6588;
5253018981330454;44.7862;-14.3594;0.5734;
5253018991330454;44.7862;-14.3228;0.5612;
5253019001330454;44.8472;-14.3350;0.4148;
5253019011330454;44.9448;-14.3350;0.3050;
5253019021330454;44.8472;-14.3350;0.4880;
5253019031330454;44.6276;-14.3350;0.7686;
5253019041330454;44.5422;-14.3350;0.8174;
5253019051330454;44.5788;-14.3472;0.6710;
5253019061330454;44.6154;-14.3716;0.6466;
5253019071330454;44.7252;-14.4448;0.5124;
5253019081330454;44.8350;-14.5180;0.4392;
5253019091330454;44.8228;-14.6156;0.4636;
5253019101330454;44.8838;-14.7010;0.2806;
5253019111330454;44.9936;-14.7742;0.0854;
5253019121330454;45.0912;-14.8352;-0.0366;
5253019131330454;45.0790;-14.8840;-0.0244;
5253019141330454;44.9692;-14.9206;0.1098;
5253019151330454;44.8350;-14.9572;0.2928;
5253019161330454;44.6520;-15.0426;0.5246;
5253019171330454;44.6886;-15.0548;0.4392;
5253019181330454;44.6276;-15.0914;0.4880;
5253019191330454;44.5300;-15.1646;0.5490;
5253019201330454;44.4934;-15.2500;0.5246;
5253019211330454;44.5056;-15.3354;0.4514;
5253019221330454;44.6154;-15.4086;0.2074;
5253019231330454;44.6520;-15.5062;0.0366;
5253019241330454;44.7618;-15.5672;-0.0854;
5253019251330454;44.7130;-15.6770;-0.0610;
5253019261330454;44.7618;-15.7502;-0.1098;
5253019271330454;44.8838;-15.8234;-0.2196;
5253019281330454;44.8472;-15.9088;-0.1586;
5253019291330454;44.7984;-16.0186;-0.0732;
5253019301330454;44.6642;-16.1284;0.0732;
5253019311330454;44.5910;-16.2016;0.1830;
5253019321330454;44.4202;-16.2992;0.3294;
5253019331330454;44.2982;-16.4090;0.3660;
5253019341330454;44.2738;-16.5066;0.3416;
5253019351330454;44.1884;-16.5676;0.3538;
5253019361330454;44.1030;-16.6042;0.4392;
5253019371330454;44.0298;-16.6652;0.4758;
5253019381330454;44.0176;-16.7262;0.4392;
5253019391330454;43.8468;-16.8360;0.5856;
5253019401330454;43.8590;-16.9092;0.5490;
5253019411330454;43.7736;-16.9336;0.7076;
5253019421330454;43.5784;-17.0068;0.9516;
5253019431330454;43.3588;-17.1044;1.2200;
5253019441330454;43.2124;-17.1898;1.4274;
5253019451330454;43.1880;-17.2264;1.4518;
5253019461330454;43.2246;-17.2874;1.4518;
5253019471330454;43.3588;-17.2752;1.2688;
5253019481330454;43.3954;-17.3118;1.1956;
5253019491330454;43.5784;-17.3606;0.9516;
5253019501330454;43.7248;-17.3850;0.7686;
5253019511330454;43.9688;-17.3728;0.5002;
5253019521330454;44.2372;-17.4094;0.1952;
5253019531330454;44.3714;-17.4460;0.0122;
5253019541330454;44.4324;-17.4704;-0.0976;
5253019551330454;44.4202;-17.5070;-0.0732;
5253019561330454;44.3226;-17.5314;-0.0122;
5253019571330454;44.2006;-17.5924;0.0854;
5253019581330454;44.1640;-17.6778;0.0366;
5253019591330454;43.9932;-17.7266;0.2074;
5253019601330454;43.8468;-17.7998;0.2928;
5253019611330454;43.6516;-17.8852;0.5978;
5253019621330454;43.4564;-17.9584;0.8540;
5253019631330454;43.3588;-18.0438;0.9150;
5253019641330454;43.3466;-18.1658;1.0004;
5253019651330454;43.2490;-18.2634;1.2200;
5253019661330454;43.1148;-18.3488;1.5616;
5253019671330454;43.0050;-18.4586;1.6470;
5253019681330454;42.8220;-18.5440;1.9154;
5253019691330454;42.6756;-18.6050;2.0740;
5253019701330454;42.5780;-18.6904;2.1960;
5253019711330454;42.4438;-18.8124;2.4522;
5253019721330454;42.2608;-18.9222;2.6108;
5253019731330454;42.1876;-18.9710;2.6718;
5253019741330454;42.1144;-19.0564;2.6352;
5253019751330454;42.1510;-19.1906;2.7084;
5253019761330454;42.1754;-19.2394;2.6718;
5253019771330454;42.1998;-19.3614;2.6108;
5253019781330454;42.1510;-19.4468;2.6474;
5253019791330454;42.2364;-19.4956;2.4644;
5253019801330454;42.3340;-19.5322;2.3058;
5253019811330454;42.3706;-19.6298;2.1960;
5253019821330454;42.3584;-19.6786;2.1106;
5253019831330454;42.3584;-19.7030;1.9276;
5253019841330454;42.3584;-19.8006;1.7446;
5253019851330454;42.2364;-19.8250;1.7568;
5253019861330454;42.2730;-19.8616;1.6226;
5253019871330454;42.1876;-19.9470;1.5494;
5253019881330454;42.1754;-19.9592;1.4762;
5253019891330454;42.2974;-19.9470;1.1712;
5253019901330454;42.5292;-19.9592;0.7930;
5253019911330454;42.6512;-19.9714;0.5612;
5253019921330454;42.7976;-19.9470;0.3050;
5253019931330454;43.1636;-19.9592;-0.2562;
5253019941330454;43.4442;-19.9714;-0.7442;
5253019951330454;43.6394;-19.9348;-1.0004;
5253019961330454;43.7614;-19.9592;-1.2932;
5253019971330454;43.7004;-19.9958;-1.2688;
5253019981330454;43.6150;-20.0690;-1.2566;
5253019991330454;43.6028;-20.0812;-1.2566;
5253020001330454;43.6272;-20.1544;-1.3542;
5253020011330454;43.4930;-20.1910;-1.1956;
5253020021330454;43.3588;-20.2154;-1.0370;
5253020031330454;43.2612;-20.2642;-1.0004;
5253020041330454;43.2490;-20.2764;-0.9516;
5253020051330454;43.2002;-20.3252;-0.8906;
5253020061330454;43.1392;-20.3252;-0.7930;
5253020071330454;43.2612;-20.3252;-0.9638;
5253020081330454;43.3344;-20.2886;-1.0370;
5253020091330454;43.3832;-20.2886;-1.1590;
5253020101330454;43.3344;-20.2764;-1.0736;
5253020111330454;43.3466;-20.2764;-1.0004;
5253020121330454;43.3588;-20.3008;-1.0004;
5253020131330454;43.4198;-20.2520;-1.0858;
5253020141330454;43.3466;-20.2032;-1.0126;
5253020151330454;43.1880;-20.1544;-0.8418;
5253020161330454;42.9074;-20.1300;-0.5246;
5253020171330454;42.6756;-20.0812;-0.2440;
5253020181330454;42.5536;-20.0690;-0.1220;
5253020191330454;42.5292;-20.0324;-0.1708;
5253020201330454;42.4682;-19.9836;-0.1220;
5253020211330454;42.2852;-19.9470;0.0732;
5253020221330454;42.3096;-19.9226;-0.0000;
5253020231330454;42.2730;-19.9104;0.0122;
5253020241330454;42.4560;-19.8738;-0.1586;
5253020251330454;42.6390;-19.8616;-0.3660;
5253020261330454;42.7488;-19.8250;-0.4148;
5253020271330454;42.7366;-19.7518;-0.2562;
5253020281330454;42.6268;-19.7152;-0.0610;
5253020291330454;42.6268;-19.6786;0.0854;
5253020301330454;42.4804;-19.6420;0.4636;
5253020311330454;42.4560;-19.5566;0.7320;
5253020321330454;42.2730;-19.4956;1.0858;
5253020331330454;42.1632;-19.4346;1.4518;
5253020341330454;42.1266;-19.3980;1.6836;
5253020351330454;42.2486;-19.3004;1.6836;
5253020361330454;42.5414;-19.1784;1.5738;
5253020371330454;42.8830;-19.0564;1.3298;
5253020381330454;43.1880;-18.8978;1.1590;
5253020391330454;43.3222;-18.8002;1.1224;
5253020401330454;43.6028;-18.6416;0.9272;
5253020411330454;43.8102;-18.4708;0.7930;
5253020421330454;44.0786;-18.2634;0.5856;
5253020431330454;44.1640;-18.0926;0.6100;
5253020441330454;44.2250;-17.9584;0.6466;
5253020451330454;44.2494;-17.7754;0.8784;
5253020461330454;44.3226;-17.6046;0.8540;
5253020471330454;44.5422;-17.4216;0.6954;
5253020481330454;44.6520;-17.2752;0.6466;
5253020491330454;44.6032;-17.1044;0.7564;
5253020501330454;44.5544;-16.9580;0.8540;
5253020511330454;44.5544;-16.7506;0.9150;
5253020521330454;44.3958;-16.5188;1.1468;
5253020531330454;44.3226;-16.3480;1.0736;
5253020541330454;44.2738;-16.1528;1.2078;
5253020551330454;44.1762;-15.9210;1.4274;
5253020561330454;44.0542;-15.7014;1.6104;
5253020571330454;44.1030;-15.4940;1.6348;
5253020581330454;44.0542;-15.2622;1.8544;
5253020591330454;44.0664;-15.0792;1.9154;
5253020601330454;44.0908;-14.9084;1.8788;
5253020611330454;44.1396;-14.7010;2.0008;
5253020621330454;44.1274;-14.5424;2.1716;
5253020631330454;44.1884;-14.3716;2.2448;
5253020641330454;44.2616;-14.2374;2.3912;
5253020651330454;44.2982;-14.0910;2.5620;
5253020661330454;44.3226;-13.9568;2.6596;
5253020671330454;44.3348;-13.9080;2.8426;
5253020681330454;44.3958;-13.7982;2.9890;
5253020691330454;44.4446;-13.7616;3.0744;
5253020701330454;44.5666;-13.6518;3.0622;
5253020711330454;44.6154;-13.5908;3.1476;
5253020721330454;44.6520;-13.4810;3.2452;
5253020731330454;44.7252;-13.4322;3.3184;
5253020741330454;44.8838;-13.3834;3.2574;
5253020751330454;44.9692;-13.3346;3.2696;
5253020761330454;45.0546;-13.2980;3.3184;
5253020771330454;44.9814;-13.2248;3.5258;
5253020781330454;44.9692;-13.2614;3.6356;
5253020791330454;44.9204;-13.2858;3.7454;
5253020801330454;44.9570;-13.3102;3.7820;
5253020811330454;44.9570;-13.3224;3.7576;
5253020821330454;45.0180;-13.3590;3.7088;
5253020831330454;45.0546;-13.3346;3.7576;
5253020841330454;45.1644;-13.3590;3.6966;
5253020851330454;45.3718;-13.3956;3.5136;
5253020861330454;45.5792;-13.3834;3.2940;
5253020871330454;45.6036;-13.3712;3.3672;
5253020881330454;45.5670;-13.3956;3.4404;
5253020891330454;45.4572;-13.4078;3.6844;
5253020901330454;45.2986;-13.3834;3.9406;
5253020911330454;45.2132;-13.4078;4.0870;
5253020921330454;44.9814;-13.4688;4.4042;
5253020931330454;44.7740;-13.5176;4.7092;
5253020941330454;44.4446;-13.5908;5.0508;
5253020951330454;44.3104;-13.6518;5.1484;
5253020961330454;44.2250;-13.6884;5.3436;
5253020971330454;44.2738;-13.7372;5.2216;
5253020981330454;44.3836;-13.7738;5.1240;
5253020991330454;44.3348;-13.8226;5.1606;
5253021001330454;44.3592;-13.8714;5.1240;
5253021011330454;44.2372;-13.9202;5.2704;
5253021021330454;44.1762;-13.9446;5.4168;
5253021031330454;44.0908;-13.9812;5.5510;
5253021041330454;44.0054;-14.0178;5.6486;
5253021051330454;43.9200;-14.0300;5.7950;
5253021061330454;43.7614;-14.0788;6.0268;
5253021071330454;43.6760;-14.1520;6.1610;
5253021081330454;43.7980;-14.1520;6.0634;
5253021091330454;44.0176;-14.1520;5.8194;
5253021101330454;44.2006;-14.1764;5.6730;
5253021111330454;44.4568;-14.2374;5.4290;
5253021121330454;44.7374;-14.3106;5.0630;
5253021131330454;44.8838;-14.3838;5.0386;
5253021141330454;45.0546;-14.4448;4.8678;
5253021151330454;45.2986;-14.4570;4.5872;
5253021161330454;45.2864;-14.5180;4.6482;
5253021171330454;45.2742;-14.5668;4.7092;
5253021181330454;45.2132;-14.6278;4.7824;
5253021191330454;45.1888;-14.6888;4.8190;
5253021201330454;45.2254;-14.6888;4.7702;
5253021211330454;45.1644;-14.7864;4.7214;
5253021221330454;45.1400;-14.8230;4.6848;
5253021231330454;44.9814;-14.8718;4.7946;
5253021241330454;44.9204;-14.9084;4.7458;
5253021251330454;44.7862;-15.0060;4.8556;
5253021261330454;44.7862;-15.0426;4.7824;
5253021271330454;44.7984;-15.0670;4.7336;
5253021281330454;44.6398;-15.1158;4.8434;
5253021291330454;44.5910;-15.1402;4.8556;
5253021301330454;44.5910;-15.2378;4.7702;
5253021311330454;44.5178;-15.2988;4.6970;
5253021321330454;44.3592;-15.3720;4.8068;
5253021331330454;44.2128;-15.4208;4.8556;
5253021341330454;44.0664;-15.4696;4.9898;
5253021351330454;43.7980;-15.4940;5.2826;
5253021361330454;43.6150;-15.5428;5.4290;
5253021371330454;43.5296;-15.5550;5.5022;
5253021381330454;43.3588;-15.5306;5.6608;
5253021391330454;43.4442;-15.5184;5.6852;
5253021401330454;43.5784;-15.5062;5.5632;
5253021411330454;43.8346;-15.4696;5.1850;
5253021421330454;44.0054;-15.4818;4.8312;
5253021431330454;44.2860;-15.4696;4.3432;
5253021441330454;44.5666;-15.4208;4.0138;
5253021451330454;44.6886;-15.3354;3.7942;
5253021461330454;44.8106;-15.3232;3.6356;
5253021471330454;44.9326;-15.2622;3.4404;
5253021481330454;44.9814;-15.1768;3.3062;
5253021491330454;45.0546;-15.1158;3.3306;
5253021501330454;45.1156;-14.9938;3.3794;
5253021511330454;45.1644;-14.9328;3.3672;
5253021521330454;45.1156;-14.9084;3.4282;
5253021531330454;45.2132;-14.8718;3.4526;
5253021541330454;45.3352;-14.7498;3.4282;
5253021551330454;45.2742;-14.7132;3.5380;
5253021561330454;45.2864;-14.6644;3.5990;
5253021571330454;45.1644;-14.6156;3.7332;
5253021581330454;45.0058;-14.6034;3.9528;
5253021591330454;44.7008;-14.5302;4.3798;
5253021601330454;44.4568;-14.4570;4.7702;
5253021611330454;44.1884;-14.4448;5.1362;
5253021621330454;43.8712;-14.4448;5.4046;
5253021631330454;43.6516;-14.4692;5.6974;
5253021641330454;43.5540;-14.5180;5.8804;
5253021651330454;43.5174;-14.5424;6.0268;
5253021661330454;43.5540;-14.5790;5.9902;
5253021671330454;43.7126;-14.5668;5.8194;
5253021681330454;43.7248;-14.6034;5.8560;
5253021691330454;43.7248;-14.6644;5.7950;
5253021701330454;43.7126;-14.7498;5.9292;
5253021711330454;43.8712;-14.7742;5.7706;
5253021721330454;43.7858;-14.8718;5.7950;
5253021731330454;43.7248;-14.9572;5.8194;
5253021741330454;43.6516;-15.0060;5.8560;
5253021751330454;43.6028;-15.1402;5.8316;
5253021761330454;43.7126;-15.2500;5.6486;
5253021771330454;43.7614;-15.3476;5.5266;
5253021781330454;43.8834;-15.4330;5.3192;
5253021791330454;43.8346;-15.5672;5.3314;
5253021801330454;43.8834;-15.6160;5.2704;
5253021811330454;43.8590;-15.7380;5.2460;
5253021821330454;43.7370;-15.8966;5.3314;
5253021831330454;43.5906;-16.0430;5.5022;
5253021841330454;43.4320;-16.1284;5.5876;
5253021851330454;43.2978;-16.2504;5.7950;
5253021861330454;43.1636;-16.3846;5.8804;
5253021871330454;43.0050;-16.5066;6.0024;
5253021881330454;42.9440;-16.6164;6.0146;
5253021891330454;42.9928;-16.6652;5.9536;
5253021901330454;43.0904;-16.7140;5.8438;
5253021911330454;42.9562;-16.7506;5.9902;
5253021921330454;42.6024;-19.9348;6.3318;
5253021931330454;42.5658;-19.9714;6.2342;
5253021941330454;42.4438;-20.0324;6.3562;
5253021951330454;42.2852;-20.0934;6.5026;
5253021961330454;42.0778;-20.2276;6.6978;
5253021971330454;41.8826;-20.3374;6.9052;
5253021981330454;41.6630;-20.4838;7.1004;
5253021991330454;41.7606;-20.6302;6.9296;
5253022001330454;41.8216;-20.7644;6.8686;
5253022011330454;41.6142;-20.9108;7.1370;
5253022021330454;41.3458;-21.0450;7.3932;
5253022031330454;41.1140;-21.2036;7.6250;
5253022041330454;41.0408;-21.3256;7.7104;
5253022051330454;41.0530;-21.4476;7.5884;
5253022061330454;40.9188;-21.5696;7.6494;
5253022071330454;40.6504;-21.7282;7.9178;
5253022081330454;40.4308;-21.8990;7.9910;
5253022091330454;40.4552;-22.0576;7.8568;
5253022101330454;40.5772;-22.2284;7.5884;
5253022111330454;40.6992;-22.3748;7.2834;
5253022121330454;40.6504;-22.5212;7.1736;
5253022131330454;40.3210;-22.6676;7.4176;
5253022141330454;40.2112;-23.3752;7.4420;
5253022151330454;40.2234;-23.4972;7.2590;
5253022161330454;40.2234;-23.6192;7.0882;
5253022171330454;40.2234;-23.7656;6.8564;
5253022181330454;40.1502;-23.8510;6.7344;
5253022191330454;39.9916;-23.9730;6.6734;
5253022201330454;39.8940;-24.0950;6.4782;
5253022211330454;39.8696;-24.2170;6.2464;
5253022221330454;39.7842;-24.3268;6.0512;
5253022231330454;39.6622;-24.4122;5.8316;
5253022241330454;39.4792;-24.5098;5.7340;
5253022251330454;39.3816;-24.5830;5.5998;
5253022261330454;39.2840;-24.6440;5.4168;
5253022271330454;39.3450;-24.7050;5.0508;
5253022281330454;39.1498;-28.0722;4.7580;
5253022291330454;39.2230;-28.0722;4.4042;
5253022301330454;39.2230;-28.0356;4.1114;
5253022311330454;39.2108;-28.0112;3.8430;
5253022321330454;39.1864;-27.9746;3.5746;
5253022331330454;39.0766;-27.9136;3.4038;
5253022341330454;39.0400;-27.9014;3.1110;
5253022351330454;38.9180;-27.8282;2.9280;
5253022361330454;38.6618;-27.7550;3.0744;
5253022371330454;38.3690;-27.7306;3.0988;
5253022381330454;38.2958;-27.6208;2.9890;
5253022391330454;38.2348;-27.5110;2.9158;
5253022401330454;38.1372;-27.4256;2.8914;
5253022411330454;37.8810;-27.3280;3.0256;
5253022421330454;37.6370;-27.2182;3.2086;
5253022431330454;37.2588;-27.1206;3.5624;
5253022441330454;36.9538;-26.9986;3.7942;
5253022451330454;36.7952;-26.8400;3.9284;
5253022461330454;36.5390;-26.8034;4.0992;
5253022471330454;36.2340;-26.7302;4.3554;
5253022481330454;35.8924;-26.6204;4.6848;
5253022491330454;35.7704;-26.5350;4.7580;
5253022501330454;35.6118;-26.4618;4.8800;
5253022511330454;35.5508;-26.4008;4.9410;
5253022521330454;35.5020;-26.3398;4.8678;
5253022531330454;35.3922;-26.2666;4.9166;
5253022541330454;35.2824;-26.1568;5.0264;
5253022551330454;35.2702;-26.1080;4.9532;
5253022561330454;35.4166;-26.0470;4.6238;
5253022571330454;35.4410;-25.9738;4.3920;
5253022581330454;35.6240;-25.8884;4.0138;
5253022591330454;35.8680;-25.7786;3.5380;
5253022601330454;35.9168;-25.7298;3.4160;
5253022611330454;35.8558;-25.7664;3.3794;
5253022621330454;35.8436;-25.7908;3.2208;
5253022631330454;35.8558;-25.7908;3.1110;
5253022641330454;35.7216;-25.8396;3.1842;
5253022651330454;35.5630;-25.8762;3.3062;
5253022661330454;35.2702;-25.9250;3.5868;
5253022671330454;34.8310;-25.9860;4.0382;
5253022681330454;34.6602;-26.0348;4.0748;
5253022691330454;34.6724;-26.0470;3.8430;
5253022701330454;34.5260;-26.0836;3.7698;
5253022711330454;34.4528;-26.1080;3.5746;
5253022721330454;34.5260;-26.0836;3.2574;
5253022731330454;34.5382;-26.1324;3.0622;
5253022741330454;34.5504;-26.1202;2.7938;
5253022751330454;34.6358;-26.1324;2.4400;
5253022761330454;34.6968;-26.0958;2.1350;
5253022771330454;34.7090;-26.0958;2.0130;
5253022781330454;34.7700;-26.0958;1.8178;
5253022791330454;34.6236;-26.1324;1.9154;
5253022801330454;34.5016;-26.1568;1.9154;
5253022811330454;34.4406;-26.1690;1.7934;
5253022821330454;34.3552;-26.2300;1.6958;
5253022831330454;34.2332;-26.2788;1.7080;
5253022841330454;33.9282;-26.3642;1.9642;
5253022851330454;33.6720;-26.3764;2.1594;
5253022861330454;33.3670;-26.3886;2.4522;
5253022871330454;33.1108;-26.4374;2.7450;
5253022881330454;32.7570;-26.4496;3.1598;
5253022891330454;32.5252;-26.4496;3.5502;
5253022901330454;32.3422;-26.4618;3.8552;
5253022911330454;32.2812;-26.4374;4.0016;
5253022921330454;32.4398;-26.3764;3.9040;
5253022931330454;32.5984;-26.3886;3.8186;
5253022941330454;32.8912;-26.3642;3.5868;
5253022951330454;33.2816;-26.3032;3.1720;
5253022961330454;33.7086;-26.3032;2.7328;
5253022971330454;34.0502;-26.3154;2.2936;
5253022981330454;34.3430;-26.2910;2.0740;
5253022991330454;34.7090;-26.3154;1.7568;
5253023001330454;35.0140;-26.3520;1.5006;
5253023011330454;35.1848;-26.3764;1.4152;
5253023021330454;35.2824;-26.4374;1.3542;
5253023031330454;35.4044;-26.4862;1.3542;
5253023041330454;35.5630;-26.4374;1.3908;
5253023051330454;35.6972;-26.4252;1.4762;
5253023061330454;35.8680;-26.4008;1.4640;
5253023071330454;35.9168;-26.3764;1.6348;
5253023081330454;35.9900;-26.3764;1.7568;
5253023091330454;36.1120;-26.3398;1.8544;
5253023101330454;36.2462;-26.3154;1.9520;
5253023111330454;36.2584;-26.2544;2.1472;
5253023121330454;36.3926;-26.1934;2.2326;
5253023131330454;36.5268;-26.1690;2.3546;
5253023141330454;36.6854;-26.1446;2.4522;
5253023151330454;36.9416;-26.0592;2.3912;
5253023161330454;37.2344;-25.9860;2.3058;
5253023171330454;37.6126;-25.9128;2.0130;
5253023181330454;37.9298;-26.3276;1.9276;
5253023191330454;38.1982;-26.2544;1.8544;
5253023201330454;38.3812;-26.2178;1.9032;
5253023211330454;38.6130;-26.1202;1.7690;
5253023221330454;39.0034;-25.9494;1.5006;
5253023231330454;39.2108;-25.8274;1.4152;
5253023241330454;39.4304;-25.7054;1.3176;
5253023251330454;39.5280;-25.5590;1.4152;
5253023261330454;39.6988;-25.4248;1.4030;
5253023271330454;39.9794;-25.2784;1.3542;
5253023281330454;40.1502;-25.1320;1.3420;
5253023291330454;40.4918;-24.9490;1.1834;
5253023301330454;40.6870;-24.8148;1.1712;
5253023311330454;40.9554;-25.6444;1.0858;
5253023321330454;41.1018;-25.4614;1.0858;
5253023331330454;41.3946;-25.2662;0.9394;
5253023341330454;41.6508;-25.0588;0.7930;
5253023351330454;41.8826;-24.8514;0.6344;
5253023361330454;42.1632;-24.6196;0.4514;
5253023371330454;42.3096;-24.4244;0.5490;
5253023381330454;42.4438;-24.1926;0.5124;
5253023391330454;42.6146;-23.9974;0.6588;
5253023401330454;42.8830;-23.7656;0.6100;
5253023411330454;43.1148;-23.5460;0.5978;
5253023421330454;43.2490;-23.3020;0.6832;
5253023431330454;43.4808;-23.0702;0.7320;
5253023441330454;43.7126;-22.8628;0.6832;
5253023451330454;43.8590;-22.6188;0.6344;
5253023461330454;43.9810;-22.4114;0.7686;
5253023471330454;44.1274;-22.1186;0.7564;
5253023481330454;44.2982;-21.9234;0.7442;
5253023491330454;44.3836;-21.7282;0.8052;
5253023501330454;44.6032;-21.4964;0.7076;
5253023511330454;44.6520;-21.2524;0.8540;
5253023521330454;44.6642;-21.0206;1.0736;
5253023531330454;44.7618;-20.8498;1.2566;
5253023541330454;44.8960;-20.6790;1.2688;
5253023551330454;44.8106;-20.5570;1.5250;
5253023561330454;44.7252;-20.3618;1.8544;
5253023571330454;44.7008;-20.1910;2.1106;
5253023581330454;44.6398;-20.1056;2.4034;
5253023591330454;44.7496;-19.9958;2.3912;
5253023601330454;44.8106;-19.9104;2.4400;
5253023611330454;44.7740;-19.8128;2.6230;
5253023621330454;44.6642;-19.7762;2.8792;
5253023631330454;44.6398;-19.7030;3.1110;
5253023641330454;44.4690;-19.6908;3.4160;
5253023651330454;44.3470;-19.6786;3.7576;
5253023661330454;44.1640;-19.6298;4.1236;
5253023671330454;43.8956;-19.6054;4.6482;
5253023681330454;43.6638;-19.5932;5.0630;
5253023691330454;43.5540;-19.5444;5.3558;
5253023701330454;43.3588;-19.5078;5.7706;
5253023711330454;43.2368;-19.5322;5.9902;
5253023721330454;43.3100;-19.5322;6.0878;
5253023731330454;43.2612;-19.5444;6.2220;
5253023741330454;43.1392;-19.6054;6.3684;
5253023751330454;43.1148;-19.6786;6.4538;
5253023761330454;43.2002;-19.7274;6.4294;
5253023771330454;43.1514;-19.8372;6.4660;
5253023781330454;43.2002;-19.8738;6.4050;
5253023791330454;43.3954;-19.9104;6.2220;
5253023801330454;43.5418;-19.9592;5.9048;
5253023811330454;43.6882;-20.0446;5.7218;
5253023821330454;43.8346;-20.1178;5.5510;
5253023831330454;43.7980;-20.1666;5.4656;
5253023841330454;43.6394;-20.3252;5.5754;
5253023851330454;43.4564;-20.4594;5.7584;
5253023861330454;43.3710;-20.6180;5.7950;
5253023871330454;43.1514;-20.7522;6.0512;
5253023881330454;42.8098;-20.8742;6.5270;
5253023891330454;42.4926;-20.9596;6.8442;
5253023901330454;42.1144;-21.1060;7.2346;
5253023911330454;41.9314;-21.2646;7.5152;
5253023921330454;41.8094;-21.3622;7.6616;
5253023931330454;41.7606;-21.4232;7.6372;
5253023941330454;41.5898;-21.5452;7.8080;
5253023951330454;41.5410;-21.6428;7.7470;
5253023961330454;41.6020;-21.7770;7.5518;
5253023971330454;41.7484;-21.8746;7.2712;
5253023981330454;42.0290;-21.8868;6.8076;
5253023991330454;42.1388;-21.9112;6.5392;
5253024001330454;42.2730;-21.9600;6.2708;
5253024011330454;42.4804;-21.9966;5.9170;
5253024021330454;42.7000;-22.0332;5.4778;
5253024031330454;42.7122;-22.1308;5.2460;
5253024041330454;42.7000;-22.1308;5.1606;
5253024051330454;42.6390;-22.1918;5.0874;
5253024061330454;42.4804;-22.3260;5.2216;
5253024071330454;42.4682;-22.4480;5.0996;
5253024081330454;42.4560;-22.5090;5.0386;
5253024091330454;42.4316;-22.6432;5.0874;
5253024101330454;42.3584;-22.7042;5.2216;
5253024111330454;42.2974;-22.7408;5.3802;
5253024121330454;42.2364;-22.8262;5.4534;
5253024131330454;42.1754;-22.9238;5.5144;
5253024141330454;42.2608;-22.9848;5.3924;
5253024151330454;42.3096;-23.0214;5.3680;
5253024161330454;42.1388;-23.1190;5.5266;
5253024171330454;41.8216;-23.1800;5.7950;
5253024181330454;41.6386;-23.2532;5.8194;
5253024191330454;41.6386;-23.3264;5.7218;
5253024201330454;41.4800;-23.4362;5.7828;
5253024211330454;41.4800;-23.5338;5.7096;
5253024221330454;41.3580;-23.6558;5.7462;
5253024231330454;41.1628;-23.7656;5.7584;
5253024241330454;41.0530;-23.8876;5.7706;
5253024251330454;41.0408;-23.9974;5.5754;
5253024261330454;41.0652;-24.1194;5.4290;
5253024271330454;40.9676;-24.2536;5.3802;
5253024281330454;41.0896;-24.3390;5.0508;
5253024291330454;40.9676;-24.4244;4.9532;
5253024301330454;40.8944;-24.4610;4.8922;
5253024311330454;40.6870;-24.5220;5.0508;
5253024321330454;40.6016;-24.5586;5.0142;
5253024331330454;40.4186;-24.5952;5.0752;
5253024341330454;40.1380;-24.5952;5.3192;
5253024351330454;39.9062;-24.6562;5.4168;
5253024361330454;39.6134;-24.6562;5.5632;
5253024371330454;39.3938;-24.6684;5.7218;
5253024381330454;39.2352;-24.6684;5.7584;
5253024391330454;39.2230;-24.6562;5.7096;
5253024401330454;39.3450;-24.6440;5.4412;
5253024411330454;39.5280;-24.6074;5.2216;
5253024421330454;39.7110;-24.6074;4.8678;
5253024431330454;39.9062;-24.5342;4.6116;
5253024441330454;40.0526;-24.5098;4.5140;
5253024451330454;40.1868;-24.4488;4.3920;
5253024461330454;40.3210;-24.3634;4.1968;
5253024471330454;40.5284;-24.3146;3.9650;
5253024481330454;40.5162;-24.2780;4.0016;
5253024491330454;40.5406;-24.2414;3.9894;
5253024501330454;40.5040;-24.2292;4.0870;
5253024511330454;40.5040;-24.2048;4.1724;
5253024521330454;40.5162;-24.2048;4.2456;
5253024531330454;40.6260;-24.2414;4.2212;
5253024541330454;40.7602;-24.3268;4.1846;
5253024551330454;40.7114;-24.4244;4.2334;
5253024561330454;40.7968;-24.4732;4.1724;
5253024571330454;40.7602;-24.5342;4.2334;
5253024581330454;40.8700;-24.6074;4.1968;
5253024591330454;40.8944;-24.6928;4.2578;
5253024601330454;40.9066;-24.7782;4.2578;
5253024611330454;40.9188;-24.8270;4.2578;
5253024621330454;40.7480;-24.9002;4.5140;
5253024631330454;40.6992;-24.9734;4.5994;
5253024641330454;40.5528;-25.1076;4.8190;
5253024651330454;40.5162;-25.2418;4.9532;
5253024661330454;40.4308;-25.3150;5.1362;
5253024671330454;40.2478;-25.4370;5.3436;
5253024681330454;39.9794;-25.5102;5.6730;
5253024691330454;39.7476;-25.6444;5.9658;
5253024701330454;39.6012;-25.7420;6.1244;
5253024711330454;39.4304;-25.8518;6.3806;
5253024721330454;39.2230;-25.9372;6.6490;
5253024731330454;39.1254;-26.0226;6.8076;
5253024741330454;39.0644;-26.0836;6.8930;
5253024751330454;39.1010;-26.1690;6.8198;
5253024761330454;39.2596;-26.2422;6.5392;
5253024771330454;39.2596;-26.2910;6.5758;
5253024781330454;39.1254;-26.3520;6.7344;
5253024791330454;39.0522;-26.3520;6.7588;
5253024801330454;39.1742;-26.3032;6.6612;
5253024811330454;39.2108;-26.2666;6.5392;
5253024821330454;39.3084;-26.2788;6.3440;
5253024831330454;39.2840;-26.2544;6.3318;
5253024841330454;39.3206;-26.2422;6.3806;
5253024851330454;39.3450;-26.2300;6.2342;
5253024861330454;39.6134;-26.1568;5.8804;
5253024871330454;39.9794;-26.0592;5.4534;
5253024881330454;40.2966;-26.0348;5.0508;
5253024891330454;40.6016;-25.9738;4.6970;
5253024901330454;40.7236;-25.9006;4.5140;
5253024911330454;40.8700;-25.7908;4.3310;
5253024921330454;40.9310;-25.7054;4.1968;
5253024931330454;41.0774;-25.5834;4.0382;
5253024941330454;41.0042;-25.4980;4.1358;
5253024951330454;40.8334;-25.5102;4.3310;
5253024961330454;40.6504;-25.4614;4.4896;
5253024971330454;40.4064;-25.4004;4.7458;
5253024981330454;40.1868;-25.3760;4.9898;
5253024991330454;40.0526;-25.3638;5.2094;
5253025001330454;39.9062;-25.3394;5.3924;
5253025011330454;39.6988;-25.3638;5.5998;
5253025021330454;39.6866;-25.4004;5.5022;
5253025031330454;39.6500;-25.4004;5.5022;
5253025041330454;39.4914;-25.4370;5.6974;
5253025051330454;39.2108;-25.5224;5.9658;
5253025061330454;39.0156;-25.6322;6.1122;
5253025071330454;38.8570;-25.7054;6.1732;
5253025081330454;38.8448;-25.7542;6.0268;
5253025091330454;38.8326;-25.8518;5.8926;
5253025101330454;38.7594;-25.9494;5.8316;
5253025111330454;38.5764;-26.0592;5.8316;
5253025121330454;38.4544;-26.1446;5.7096;
5253025131330454;38.5642;-26.2178;5.3558;
5253025141330454;38.5398;-26.3032;5.1240;
5253025151330454;38.4910;-26.4130;4.9410;
5253025161330454;38.2592;-26.5472;4.9654;
5253025171330454;38.1616;-26.6326;4.8556;
5253025181330454;37.9664;-26.7302;4.8678;
5253025191330454;37.8688;-26.8400;4.7580;
5253025201330454;37.8932;-26.9010;4.5018;
5253025211330454;37.8078;-26.9620;4.4408;
5253025221330454;37.7224;-26.9620;4.2944;
5253025231330454;37.5882;-26.9864;4.1846;
5253025241330454;37.4540;-26.9620;4.1236;
5253025251330454;37.1978;-26.9498;4.2334;
5253025261330454;37.0148;-26.8888;4.2212;
5253025271330454;36.8318;-26.8156;4.2212;
5253025281330454;36.6122;-26.7668;4.4164;
5253025291330454;36.5390;-26.7058;4.3798;
5253025301330454;36.4902;-26.5960;4.3798;
5253025311330454;36.3804;-26.4862;4.4530;
5253025321330454;36.3194;-26.4130;4.4286;
5253025331330454;36.4292;-26.3398;4.3066;
5253025341330454;36.6122;-26.2910;3.9894;
5253025351330454;36.7952;-26.1812;3.6478;
5253025361330454;36.9660;-26.0714;3.3306;
5253025371330454;36.9538;-25.9372;3.2208;
5253025381330454;36.9294;-25.8518;3.1110;
5253025391330454;37.0514;-25.7298;2.9890;
5253025401330454;37.1368;-25.6078;2.8670;
5253025411330454;37.2100;-25.4492;2.7206;
5253025421330454;37.1612;-25.3272;2.8060;
5253025431330454;37.3198;-25.2052;2.6840;
5253025441330454;37.4296;-25.0832;2.5742;
5253025451330454;37.5028;-24.9978;2.5498;
5253025461330454;37.7712;-24.8880;2.3668;
5253025471330454;37.8322;-24.8148;2.2204;
5253025481330454;37.9542;-24.7294;2.1228;
5253025491330454;38.1250;-24.6562;1.9642;
5253025501330454;38.2226;-24.5464;1.8666;
5253025511330454;38.1494;-24.4488;2.1106;
5253025521330454;38.1250;-24.3390;2.2936;
5253025531330454;38.2348;-24.2658;2.2570;
5253025541330454;38.2104;-24.1316;2.4034;
5253025551330454;38.3934;-23.9730;2.4400;
5253025561330454;38.4300;-23.8266;2.5010;
5253025571330454;38.3812;-23.7046;2.7816;
5253025581330454;38.3568;-23.5216;3.0500;
5253025591330454;38.3446;-23.3752;3.2330;
5253025601330454;38.2836;-23.2410;3.4648;
5253025611330454;38.1982;-23.0702;3.7454;
5253025621330454;38.1738;-22.8994;3.9650;
5253025631330454;38.1372;-22.7530;4.2334;
5253025641330454;38.3812;-22.5944;4.1480;
5253025651330454;38.6130;-22.4236;3.9650;
5253025661330454;38.8448;-22.2650;3.9284;
5253025671330454;39.1742;-22.0210;3.7454;
5253025681330454;39.4548;-21.8380;3.6112;
5253025691330454;39.6866;-21.6184;3.6478;
5253025701330454;39.9184;-21.4232;3.6234;
5253025711330454;40.1136;-21.2524;3.6478;
5253025721330454;40.2478;-21.0572;3.9650;
5253025731330454;40.3820;-20.8010;4.2944;
5253025741330454;40.5528;-20.6302;4.4530;
5253025751330454;40.6138;-20.4960;4.8190;
5253025761330454;40.8944;-20.2886;5.0142;
5253025771330454;41.2116;-20.1422;5.1606;
5253025781330454;41.4434;-20.0202;5.3314;
5253025791330454;41.8582;-19.9104;5.3436;
5253025801330454;42.1266;-19.8006;5.3436;
5253025811330454;42.4072;-19.7762;5.5022;
5253025821330454;42.6756;-19.7152;5.6120;
5253025831330454;42.8464;-19.6786;5.7828;
5253025841330454;42.8586;-19.7396;6.0878;
5253025851330454;42.8586;-19.8006;6.4050;
5253025861330454;42.8464;-19.9104;6.7954;
5253025871330454;42.5658;-20.0812;7.4054;
5253025881330454;42.3828;-20.2642;7.8934;
5253025891330454;42.0900;-20.5082;8.3692;
5253025901330454;41.8094;-20.7888;8.8694;
5253025911330454;41.6874;-21.1060;9.2110;
5253025921330454;41.5776;-21.3866;9.4428;
5253025931330454;41.5044;-21.7160;9.5770;
5253025941330454;41.2970;-22.0576;9.8454;
5253025951330454;41.3092;-22.3504;9.8820;
5253025961330454;41.1994;-22.6432;10.0406;
5253025971330454;41.1384;-22.9116;10.0772;
5253025981330454;41.0652;-23.1434;10.1992;
5253025991330454;40.9798;-23.3630;10.2480;
5253026001330454;41.0042;-23.5704;10.0772;
5253026011330454;41.0042;-23.7534;10.0040;
5253026021330454;41.1506;-23.8876;9.6990;
5253026031330454;41.1994;-24.0340;9.5038;
5253026041330454;41.3092;-24.2048;9.1622;
5253026051330454;41.3824;-24.3756;8.9914;
5253026061330454;41.4922;-24.5586;8.6254;
5253026071330454;41.6386;-24.6806;8.3570;
5253026081330454;41.7362;-24.7904;8.2594;
5253026091330454;41.7606;-24.8392;8.1374;
5253026101330454;41.7240;-24.9490;8.1374;
5253026111330454;41.7606;-24.9978;7.9788;
5253026121330454;41.7728;-25.0344;7.9422;
5253026131330454;41.7972;-25.0344;7.8568;
5253026141330454;41.9314;-25.0222;7.7470;
5253026151330454;41.9436;-25.0222;7.6738;
5253026161330454;41.9802;-24.9978;7.4786;
5253026171330454;42.0900;-24.9978;7.2468;
5253026181330454;42.3218;-24.9490;6.9418;
5253026191330454;42.4804;-24.9246;6.7710;
5253026201330454;42.6634;-24.8880;6.5148;
5253026211330454;42.9562;-24.8148;6.1854;
5253026221330454;42.9928;-24.7538;6.1244;
5253026231330454;43.0782;-24.6684;6.0146;
5253026241330454;43.0782;-24.6196;6.0268;
5253026251330454;43.1392;-24.5586;5.9048;
5253026261330454;43.1758;-24.4854;5.9170;
5253026271330454;43.1636;-24.3756;5.9292;
5253026281330454;43.0660;-24.2658;6.0756;
5253026291330454;42.9684;-24.2048;6.2342;
5253026301330454;43.0172;-24.0950;6.1610;
5253026311330454;43.0904;-24.0340;6.1366;
5253026321330454;43.1880;-23.9608;6.1244;
5253026331330454;43.1636;-23.8754;6.2098;
5253026341330454;43.1270;-23.8022;6.2220;
5253026351330454;43.1758;-23.7412;6.1488;
5253026361330454;43.3710;-23.6924;5.9780;
5253026371330454;43.4808;-23.6314;5.7706;
5253026381330454;43.4930;-23.5948;5.7706;
5253026391330454;43.4442;-23.5338;5.7950;
5253026401330454;43.3832;-23.5094;5.9414;
5253026411330454;43.5418;-23.4240;5.8194;
5253026421330454;43.7248;-23.3630;5.6486;
5253026431330454;43.7736;-23.3142;5.6730;
5253026441330454;44.0298;-23.1922;5.3680;
5253026451330454;43.9322;-23.1434;5.4778;
5253026461330454;43.8956;-23.0946;5.6486;
5253026471330454;43.8956;-23.0214;5.6730;
5253026481330454;44.0176;-22.9482;5.5022;
5253026491330454;43.9322;-22.9116;5.6486;
5253026501330454;43.7492;-22.8750;5.8804;
5253026511330454;43.6150;-22.8628;6.0634;
5253026521330454;43.2490;-22.8384;6.4782;
5253026531330454;43.2856;-22.8018;6.5392;
5253026541330454;43.2612;-22.7896;6.5026;
5253026551330454;43.2124;-22.7774;6.5636;
5253026561330454;43.2124;-22.7530;6.5270;
5253026571330454;43.2612;-22.6920;6.4172;
5253026581330454;43.2734;-22.7042;6.3928;
5253026591330454;43.3954;-22.7286;6.2464;
5253026601330454;43.5662;-22.7652;6.0878;
5253026611330454;43.8346;-22.7408;5.7828;
5253026621330454;44.0664;-22.7164;5.5388;
5253026631330454;44.3226;-22.6798;5.2460;
5253026641330454;44.3836;-22.6920;5.1972;
5253026651330454;44.3226;-22.7530;5.2582;
5253026661330454;44.4080;-22.7652;5.1484;
5253026671330454;44.4934;-22.7164;5.0142;
5253026681330454;44.5178;-22.7286;5.0630;
5253026691330454;44.2738;-22.8018;5.3436;
5253026701330454;44.2372;-22.8262;5.3558;
5253026711330454;44.1884;-22.9116;5.4656;
5253026721330454;44.1396;-22.9482;5.5754;
5253026731330454;44.0908;-22.9970;5.6974;
5253026741330454;44.0542;-23.0092;5.7218;
5253026751330454;43.8468;-23.0946;5.9536;
5253026761330454;43.6516;-23.1922;6.0756;
5253026771330454;43.6272;-23.2654;6.0268;
5253026781330454;43.4564;-23.3874;6.1366;
5253026791330454;43.2856;-23.4728;6.2464;
5253026801330454;43.1636;-23.5704;6.2220;
5253026811330454;43.1514;-23.6680;6.1610;
5253026821330454;42.9928;-23.7778;6.2708;
5253026831330454;42.8952;-23.8754;6.3196;
5253026841330454;42.7122;-23.9730;6.4538;
5253026851330454;42.6512;-24.0584;6.4294;
5253026861330454;42.5902;-24.1316;6.3562;
5253026871330454;42.5902;-24.2170;6.2098;
5253026881330454;42.6146;-24.2902;6.1610;
5253026891330454;42.5780;-24.3756;6.0878;
5253026901330454;42.6024;-24.4976;5.8804;
5253026911330454;42.6390;-24.5708;5.6364;
5253026921330454;42.7244;-24.5830;5.3680;
5253026931330454;42.5902;-24.5952;5.3802;
5253026941330454;42.3828;-24.6074;5.4900;
5253026951330454;42.2242;-24.5952;5.5388;
5253026961330454;42.0778;-24.6440;5.5022;
5253026971330454;41.9314;-24.6318;5.4534;
5253026981330454;41.7484;-24.5952;5.5632;
5253026991330454;41.5654;-24.5342;5.6974;
5253027001330454;41.2970;-24.5220;5.8682;
5253027011330454;41.2116;-24.5342;5.9414;
5253027021330454;41.1628;-24.4610;5.9902;
5253027031330454;40.9920;-24.4122;6.1610;
5253027041330454;40.8456;-24.2658;6.2464;
5253027051330454;40.6870;-24.1682;6.4172;
5253027061330454;40.6016;-24.0950;6.5270;
5253027071330454;40.5650;-24.0584;6.6124;
5253027081330454;40.4430;-24.0096;6.7222;
5253027091330454;39.5524;-25.4614;7.4420;
5253027101330454;39.5036;-25.4492;7.4542;
5253027111330454;39.4914;-25.4492;7.4542;
5253027121330454;39.4060;-25.4614;7.6006;
5253027131330454;39.3328;-25.5102;7.6860;
5253027141330454;39.1864;-25.5224;7.8446;
5253027151330454;39.0644;-25.5468;7.9544;
5253027161330454;39.0400;-25.5956;8.0154;
5253027171330454;38.9302;-25.6932;8.1862;
5253027181330454;38.7594;-25.8152;8.4058;
5253027191330454;38.5642;-25.9250;8.6254;
5253027201330454;38.4544;-26.0714;8.7840;
5253027211330454;38.2592;-26.2422;9.0524;
5253027221330454;38.2104;-26.4008;9.0646;
5253027231330454;38.2348;-26.5716;9.0280;
5253027241330454;38.3568;-26.7424;8.9182;
5253027251330454;38.4666;-26.9498;8.7108;
5253027261330454;38.6496;-27.1694;8.4790;
5253027271330454;38.9180;-27.3402;8.1130;
5253027281330454;39.0644;-27.5842;7.8568;
5253027291330454;39.3450;-27.7794;7.4420;
5253027301330454;39.6256;-28.0112;7.1004;
5253027311330454;39.8086;-28.2552;6.8442;
5253027321330454;39.7232;-28.5602;6.8198;
5253027331330454;39.6988;-28.7676;6.7222;
5253027341330454;39.6500;-28.9140;6.6978;
5253027351330454;39.4548;-29.1702;6.8076;
5253027361330454;39.1864;-29.4264;7.0638;
5253027371330454;39.0156;-29.6216;7.2102;
5253027381330454;38.7472;-29.8656;7.4054;
5253027391330454;38.5642;-30.0120;7.5152;
5253027401330454;38.5154;-30.1462;7.5884;
5253027411330454;38.4056;-30.2682;7.7836;
5253027421330454;38.2714;-30.4146;7.9544;
5253027431330454;38.2226;-30.5122;8.0520;
5253027441330454;38.3202;-30.5610;7.9056;
5253027451330454;38.4178;-30.5976;7.7348;
5253027461330454;38.4422;-30.5732;7.6494;
5253027471330454;38.4910;-30.6098;7.5518;
5253027481330454;38.6618;-30.5610;7.2590;
5253027491330454;38.8448;-30.5732;6.8808;
5253027501330454;39.0400;-30.5610;6.4904;
5253027511330454;39.1742;-30.5488;6.1732;
5253027521330454;39.2596;-30.5366;5.9414;
5253027531330454;39.1498;-30.5854;6.0146;
5253027541330454;39.1132;-30.5854;6.0634;
5253027551330454;39.0766;-30.5854;6.0512;
5253027561330454;38.9180;-30.6098;6.2342;
5253027571330454;38.7838;-30.6342;6.4172;
5253027581330454;38.7472;-30.6464;6.5636;
5253027591330454;38.7472;-30.6464;6.6612;
5253027601330454;38.7472;-30.5732;6.7954;
5253027611330454;38.8448;-30.5244;6.7344;
5253027621330454;38.8570;-30.5244;6.7954;
5253027631330454;38.8204;-30.4878;6.9540;
5253027641330454;38.8692;-30.4512;6.9052;
5253027651330454;38.9302;-30.3658;6.8808;
5253027661330454;38.9180;-30.3292;6.9174;
5253027671330454;38.8692;-30.2926;7.0028;
5253027681330454;38.9668;-30.3170;6.8930;
5253027691330454;39.0766;-30.2316;6.7222;
5253027701330454;39.3572;-30.2072;6.3440;
5253027711330454;39.5890;-30.1462;5.9780;
5253027721330454;39.9062;-30.0608;5.5632;
5253027731330454;40.1258;-30.0486;5.2338;
5253027741330454;40.2356;-30.0120;5.0142;
5253027751330454;40.2722;-29.9632;4.9166;
5253027761330454;40.1258;-29.9144;5.0386;
5253027771330454;39.9794;-29.9022;5.1240;
5253027781330454;39.7476;-29.8656;5.3436;
5253027791330454;39.3938;-29.8534;5.7828;
5253027801330454;38.9546;-29.8290;6.2342;
5253027811330454;38.5398;-29.7680;6.7222;
5253027821330454;38.2592;-29.6948;7.0760;
5253027831330454;38.1128;-29.6216;7.1858;
5253027841330454;38.1738;-29.5484;7.0150;
5253027851330454;38.1494;-29.4752;6.9784;
5253027861330454;38.1738;-29.3532;6.8808;
5253027871330454;38.3324;-29.2434;6.5514;
5253027881330454;38.4788;-29.1580;6.3318;
5253027891330454;38.6374;-29.0360;6.1122;
5253027901330454;38.7716;-28.9262;5.8438;
5253027911330454;38.9790;-28.8286;5.6608;
5253027921330454;38.9180;-28.6944;5.7096;
5253027931330454;38.9180;-28.5358;5.8194;
5253027941330454;38.8814;-28.4138;5.9780;
5253027951330454;38.8204;-28.2674;6.2098;
5253027961330454;38.7838;-28.1210;6.3806;
5253027971330454;38.8570;-27.9990;6.4172;
5253027981330454;38.7960;-27.9136;6.6490;
5253027991330454;38.7228;-27.8038;6.8442;
5253028001330454;38.7350;-27.7428;7.0150;
5253028011330454;38.8082;-27.7184;7.0394;
5253028021330454;38.7594;-27.7428;7.1980;
5253028031330454;38.7594;-27.7916;7.3322;
5253028041330454;38.6374;-27.8892;7.5884;
5253028051330454;38.4910;-28.0356;7.8446;
5253028061330454;38.5154;-28.1576;7.9666;
5253028071330454;38.5886;-28.3162;7.9544;
5253028081330454;38.5154;-28.5114;8.1252;
5253028091330454;38.4422;-28.7066;8.2838;
5253028101330454;38.4178;-28.9262;8.3570;
5253028111330454;38.3934;-29.1702;8.4180;
5253028121330454;38.3934;-29.4874;8.4058;
5253028131330454;38.3446;-29.7924;8.5400;
5253028141330454;38.1006;-30.0974;8.7718;
5253028151330454;37.8078;-30.4634;9.0890;
5253028161330454;37.4784;-30.8782;9.4306;
5253028171330454;37.0880;-31.3052;9.8088;
5253028181330454;36.6976;-31.7078;10.1504;
5253028191330454;36.3316;-32.1104;10.5164;
5253028201330454;35.9656;-32.4276;10.8214;
5253028211330454;35.6118;-32.7936;10.9556;
5253028221330454;35.4044;-33.1474;10.9434;
5253028231330454;35.1116;-33.4890;11.0532;
5253028241330454;35.0628;-33.7574;10.7970;
5253028251330454;35.0262;-33.9892;10.5530;
5253028261330454;35.0384;-34.2210;10.2602;
5253028271330454;35.0872;-34.4162;9.8332;
5253028281330454;35.2336;-34.6114;9.3208;
5253028291330454;35.4898;-34.6846;8.7596;
5253028301330454;35.7338;-34.7944;8.1984;
5253028311330454;35.9656;-34.8066;7.7104;
5253028321330454;36.0998;-34.8066;7.3444;
5253028331330454;36.3560;-34.7944;6.7710;
5253028341330454;36.5756;-34.7334;6.3684;
5253028351330454;36.6122;-34.6114;6.1244;
5253028361330454;36.7220;-34.4894;5.8926;
5253028371330454;36.8806;-34.3674;5.6242;
5253028381330454;37.0270;-34.1844;5.4656;
5253028391330454;37.3198;-34.0136;5.0264;
5253028401330454;37.5516;-33.8306;4.8434;
5253028411330454;37.7102;-33.5866;4.7946;
5253028421330454;37.9664;-33.3792;4.5872;
5253028431330454;38.3080;-33.2084;4.3920;
5253028441330454;38.5032;-33.0010;4.3310;
5253028451330454;38.5764;-32.7936;4.3676;
5253028461330454;38.7228;-32.5618;4.3920;
5253028471330454;38.7838;-32.3544;4.5262;
5253028481330454;38.9058;-32.1104;4.4530;
5253028491330454;39.0644;-31.9274;4.4896;
5253028501330454;39.1132;-31.7200;4.5140;
5253028511330454;39.2352;-31.4760;4.5628;
5253028521330454;39.3938;-31.2808;4.5384;
5253028531330454;39.5768;-31.0490;4.5140;
5253028541330454;39.7354;-30.8538;4.4530;
5253028551330454;39.9184;-30.6342;4.4042;
5253028561330454;40.2356;-30.4512;4.3066;
5253028571330454;40.4552;-30.2682;4.1236;
5253028581330454;40.7480;-30.0730;4.0748;
5253028591330454;40.9188;-29.8900;4.0504;
5253028601330454;41.0896;-29.6826;4.1114;
5253028611330454;41.1506;-29.5240;4.2334;
5253028621330454;41.3092;-29.3898;4.1846;
5253028631330454;41.4190;-29.2190;4.2944;
5253028641330454;41.4556;-29.0848;4.4164;
5253028651330454;41.5410;-28.9262;4.5018;
5253028661330454;41.5044;-28.8530;4.6726;
5253028671330454;41.5532;-28.7432;4.7458;
5253028681330454;41.5776;-28.7188;4.7824;
5253028691330454;41.6264;-28.6090;4.8312;
5253028701330454;41.6752;-28.4870;4.9288;
5253028711330454;41.7362;-28.4382;4.8922;
5253028721330454;41.6996;-28.3528;5.0264;
5253028731330454;41.6142;-28.3040;5.2704;
5253028741330454;41.5532;-28.2186;5.4778;
5253028751330454;41.7118;-28.1454;5.4168;
5253028761330454;41.8582;-28.0234;5.3558;
5253028771330454;42.0412;-27.9624;5.2338;
5253028781330454;42.0412;-27.9258;5.3314;
5253028791330454;42.1022;-27.8770;5.3924;
5253028801330454;42.3950;-27.8282;5.0508;
5253028811330454;42.7610;-27.7550;4.6604;
5253028821330454;43.0538;-27.6452;4.3310;
5253028831330454;42.9806;-27.5720;4.4530;
5253028841330454;43.0416;-27.5720;4.4652;
5253028851330454;43.0294;-27.5476;4.4774;
5253028861330454;43.0782;-27.4988;4.4530;
5253028871330454;43.1270;-27.4378;4.4286;
5253028881330454;42.9074;-27.4256;4.7336;
5253028891330454;42.5292;-27.4012;5.2338;
5253028901330454;42.2242;-27.3768;5.5876;
5253028911330454;42.1632;-27.3646;5.7706;
5253028921330454;42.0656;-27.2792;5.9048;
5253028931330454;42.0168;-27.2304;6.0390;
5253028941330454;41.9436;-27.1816;6.1244;
5253028951330454;41.9070;-27.1450;6.2586;
5253028961330454;41.9680;-27.0718;6.2586;
5253028971330454;42.0290;-27.0230;6.1976;
5253028981330454;42.0900;-26.9864;6.1366;
5253028991330454;42.0778;-26.9742;6.1122;
5253029001330454;42.0412;-26.9376;6.1610;
5253029011330454;42.1388;-26.8644;6.1122;
5253029021330454;42.2120;-26.8400;6.0878;
5253029031330454;42.1388;-26.8400;6.1976;
5253029041330454;42.1998;-26.8156;6.1488;
5253029051330454;42.2974;-26.8156;6.0634;
5253029061330454;42.4072;-26.8278;6.0390;
5253029071330454;42.4560;-26.8156;6.0024;
5253029081330454;42.5658;-26.8278;5.9170;
5253029091330454;42.5414;-26.9010;5.9658;
5253029101330454;42.5780;-26.8766;5.9170;
5253029111330454;42.6756;-26.8888;5.8072;
5253029121330454;42.5780;-26.8766;6.0024;
5253029131330454;42.6024;-26.8644;6.0268;
5253029141330454;42.5902;-26.8522;6.0390;
5253029151330454;42.6390;-26.8766;5.9780;
5253029161330454;42.5780;-26.8766;6.0878;
5253029171330454;42.4682;-26.9254;6.2708;
5253029181330454;42.2852;-26.9742;6.5514;
5253029191330454;42.1144;-26.9864;6.7466;
5253029201330454;41.9314;-27.0840;6.9296;
5253029211330454;41.7606;-27.1450;7.1492;
5253029221330454;41.6996;-27.2182;7.2346;
5253029231330454;41.6264;-27.2548;7.3444;
5253029241330454;41.5654;-27.3280;7.3566;
5253029251330454;41.3702;-27.3524;7.5396;
5253029261330454;41.2482;-27.4012;7.6738;
5253029271330454;41.1994;-27.4378;7.8080;
5253029281330454;41.1994;-27.4744;7.8202;
5253029291330454;41.2726;-27.5354;7.6982;
5253029301330454;41.2360;-27.5476;7.6616;
5253029311330454;41.1872;-27.6086;7.6982;
5253029321330454;41.0896;-27.6696;7.7958;
5253029331330454;41.2116;-27.6940;7.6006;
5253029341330454;41.1506;-27.7306;7.6738;
5253029351330454;41.0286;-27.8038;7.7226;
5253029361330454;40.9554;-27.8282;7.7958;
5253029371330454;40.8212;-27.8526;7.9178;
5253029381330454;40.6626;-27.9136;8.1984;
5253029391330454;40.6016;-27.9136;8.2716;
5253029401330454;40.5528;-27.9502;8.4302;
5253029411330454;40.4430;-27.9746;8.6864;
5253029421330454;40.5528;-27.9990;8.5156;
5253029431330454;40.6260;-27.9990;8.4546;
5253029441330454;40.7114;-28.0112;8.3570;
5253029451330454;40.8456;-28.0600;8.2838;
5253029461330454;41.0286;-28.1210;8.0398;
5253029471330454;41.1262;-28.1942;7.8446;
5253029481330454;41.1628;-28.2308;7.6494;
5253029491330454;41.1750;-28.3162;7.5518;
5253029501330454;41.2116;-28.4016;7.5152;
5253029511330454;41.2238;-28.4870;7.5518;
5253029521330454;41.1018;-28.5724;7.6738;
5253029531330454;40.8578;-28.6090;7.9178;
5253029541330454;40.6992;-28.6334;8.1862;
5253029551330454;40.5040;-28.6944;8.5156;
5253029561330454;40.4064;-28.7310;8.7718;
5253029571330454;40.2722;-28.7554;9.0036;
5253029581330454;40.2722;-28.7798;9.0280;
5253029591330454;40.3454;-28.8042;8.8938;
5253029601330454;40.5772;-28.8042;8.7108;
5253029611330454;40.8456;-28.8164;8.4180;
5253029621330454;41.0042;-28.9140;8.2960;
5253029631330454;41.0896;-28.9750;8.1740;
5253029641330454;41.2970;-29.0482;7.9056;
5253029651330454;41.4556;-29.1092;7.6494;
5253029661330454;41.3580;-29.1702;7.7714;
5253029671330454;41.2726;-29.2800;7.8202;
5253029681330454;41.1750;-29.4020;7.8202;
5253029691330454;40.9920;-29.5850;8.0154;
5253029701330454;40.7968;-29.6460;8.0032;
5253029711330454;40.7358;-29.7192;8.0398;
5253029721330454;40.6260;-29.8168;8.1740;
5253029731330454;40.5772;-29.9388;8.2472;
5253029741330454;40.6260;-30.0852;8.1740;
5253029751330454;40.5528;-30.2072;8.3082;
5253029761330454;40.3576;-30.3536;8.6986;
5253029771330454;40.1868;-30.4268;8.9426;
5253029781330454;40.1136;-30.5732;9.1378;
5253029791330454;40.0648;-30.6830;9.2598;
5253029801330454;39.8940;-30.8660;9.4916;
5253029811330454;39.7964;-31.0246;9.6868;
5253029821330454;39.6134;-31.2442;9.9918;
5253029831330454;39.5646;-31.4394;10.1016;
5253029841330454;39.5646;-31.6590;9.9796;
5253029851330454;39.5402;-31.8908;10.0040;
5253029861330454;39.4914;-32.1714;10.1504;
5253029871330454;39.3938;-32.5130;10.2480;
5253029881330454;39.3084;-32.7570;10.2968;
5253029891330454;39.1498;-33.1108;10.3700;
5253029901330454;39.0034;-33.5134;10.4432;
5253029911330454;38.7106;-33.9038;10.7360;
5253029921330454;38.5032;-34.3186;10.9068;
5253029931330454;38.3202;-34.7334;10.9800;
5253029941330454;38.0518;-35.1970;11.0898;
5253029951330454;37.6492;-35.7460;11.4558;
5253029961330454;37.3076;-36.3926;11.7364;
5253029971330454;36.9416;-36.9538;12.0170;
5253029981330454;36.5756;-37.4784;12.2244;
5253029991330454;36.3438;-38.0762;12.2366;
5253030001330454;35.9046;-38.7716;12.5172;
5253030011330454;35.5508;-39.5402;12.6636;
5253030021330454;35.3068;-40.2844;12.6636;
5253030031330454;35.2092;-40.9920;12.3830;
5253030041330454;35.0018;-41.7728;12.0902;
5253030051330454;34.8676;-42.6634;11.6632;
5253030061330454;34.7822;-43.5418;11.1752;
5253030071330454;34.5748;-44.4324;10.8092;
5253030081330454;34.5504;-45.3108;10.0650;
5253030091330454;34.4528;-46.2624;9.4306;
5253030101330454;34.2942;-47.2262;8.7474;
5253030111330454;34.1600;-48.1656;8.0154;
5253030121330454;33.9770;-48.9830;7.2346;
5253030131330454;33.9770;-49.6906;6.3440;
5253030141330454;34.0380;-50.4348;5.0874;
5253030151330454;34.2210;-51.0204;3.6234;
5253030161330454;34.4284;-51.4596;2.3180;
5253030171330454;34.6846;-51.7646;0.8174;
5253030181330454;34.9896;-51.8622;-0.6588;
5253030191330454;35.3922;-51.7524;-2.4034;
5253030201330454;36.0022;-51.5084;-4.2090;
5253030211330454;36.5878;-51.0814;-5.9536;
5253030221330454;37.0758;-50.4592;-7.4664;
5253030231330454;37.6736;-49.5564;-9.0890;
5253030241330454;38.4178;-48.4340;-10.7726;
5253030251330454;39.1254;-47.1164;-12.3708;
5253030261330454;39.9062;-45.6890;-13.8836;
5253030271330454;40.6138;-44.2250;-15.2134;
5253030281330454;41.4190;-42.3218;-16.4944;
5253030291330454;42.1754;-40.3332;-17.6290;
5253030301330454;42.8830;-38.2470;-18.5074;
5253030311330454;43.5174;-36.1974;-19.0198;
5253030321330454;44.0908;-34.1844;-19.4468;
5253030331330454;44.6886;-31.8420;-19.5810;
5253030341330454;45.3108;-29.4752;-19.6908;
5253030351330454;45.7744;-27.1084;-19.4346;
5253030361330454;46.2014;-25.0588;-18.9344;
5253030371330454;46.6040;-22.8140;-18.2024;
5253030381330454;47.1164;-20.5936;-17.5314;
5253030391330454;47.5556;-18.4586;-16.7628;
5253030401330454;47.9216;-16.3358;-15.8844;
5253030411330454;48.2876;-14.5302;-14.9084;
5253030421330454;48.5682;-12.6880;-13.6152;
5253030431330454;48.9098;-10.9678;-12.4318;
5253030441330454;49.0684;-9.3208;-11.0166;
5253030451330454;49.2026;-8.0642;-9.7600;
5253030461330454;49.3734;-6.8930;-8.5400;
5253030471330454;49.3490;-5.7950;-6.9052;
5253030481330454;49.2880;-4.8800;-5.2582;
5253030491330454;49.0562;-4.1236;-3.5624;
5253030501330454;48.8488;-3.6722;-2.0862;
5253030511330454;48.5926;-3.3306;-0.3782;
5253030521330454;48.4584;-3.0988;0.9760;
5253030531330454;48.2754;-3.0378;2.4156;
5253030541330454;47.8362;-3.1232;4.0138;
5253030551330454;47.6532;-3.3794;5.1118;
5253030561330454;47.3360;-3.8552;6.3318;
5253030571330454;47.1408;-4.4164;7.2712;
5253030581330454;46.7260;-5.0996;8.3082;
5253030591330454;46.2868;-5.8316;9.2232;
5253030601330454;45.6402;-6.6856;10.3456;
5253030611330454;45.0058;-7.6250;11.3338;
5253030621330454;44.4812;-8.6620;12.1146;
5253030631330454;43.8712;-9.7356;12.8954;
5253030641330454;43.1758;-10.6994;13.6762;
5253030651330454;42.5780;-11.7364;14.3228;
5253030661330454;42.1510;-12.8344;14.6522;
5253030671330454;41.6996;-13.9324;14.8718;
5253030681330454;41.2848;-15.0792;14.9938;
5253030691330454;40.9188;-15.9942;15.0426;
5253030701330454;40.5040;-17.0312;15.1524;
5253030711330454;40.0892;-18.0316;15.2134;
5253030721330454;39.8696;-19.0076;15.0060;
5253030731330454;39.6500;-19.8982;14.8108;
5253030741330454;39.4304;-20.6424;14.6400;
5253030751330454;39.3206;-21.3866;14.3716;
5253030761330454;39.3084;-22.0088;14.0056;
5253030771330454;39.1986;-22.6920;13.7128;
5253030781330454;39.2718;-23.2044;13.2492;
5253030791330454;39.4670;-23.6558;12.7002;
5253030801330454;39.6866;-24.1560;12.0414;
5253030811330454;39.8330;-24.5830;11.4802;
5253030821330454;39.8574;-25.0222;11.1142;
5253030831330454;39.9062;-25.3638;10.7604;
5253030841330454;39.9428;-25.7298;10.3944;
5253030851330454;40.0038;-26.0714;9.9552;
5253030861330454;40.0282;-26.3276;9.5648;
5253030871330454;39.9184;-26.6204;9.3452;
5253030881330454;39.6988;-26.8644;9.2842;
5253030891330454;39.6622;-27.1084;9.0402;
5253030901330454;39.7232;-27.2914;8.6620;
5253030911330454;39.7476;-27.4744;8.3448;
5253030921330454;39.7354;-27.6208;8.0642;
5253030931330454;39.7476;-27.7550;7.9178;
5253030941330454;39.6378;-27.9014;7.8568;
5253030951330454;39.5890;-27.9990;7.7226;
5253030961330454;39.7354;-28.0356;7.3810;
5253030971330454;39.6744;-28.0966;7.2590;
5253030981330454;39.6134;-28.1210;7.1370;
5253030991330454;39.5402;-28.1820;7.0638;
5253031001330454;39.6622;-28.1698;6.8320;
5253031011330454;39.6378;-28.1820;6.6856;
5253031021330454;39.6256;-28.1698;6.5270;
5253031031330454;39.6500;-28.1576;6.2952;
5253031041330454;39.6012;-28.1698;6.1732;
5253031051330454;39.5768;-28.0966;6.0756;
5253031061330454;39.6500;-28.0356;5.9414;
5253031071330454;39.7720;-27.9624;5.6242;
5253031081330454;39.7232;-27.9258;5.5632;
5253031091330454;39.7476;-27.8282;5.3802;
5253031101330454;39.7842;-27.7306;5.2216;
5253031111330454;39.9306;-27.5720;5.0508;
5253031121330454;39.8940;-27.4134;5.0752;
5253031131330454;39.9184;-27.2426;5.1728;
5253031141330454;39.7476;-27.1328;5.4046;
5253031151330454;39.6622;-26.9620;5.5632;
5253031161330454;39.7354;-26.7668;5.5632;
5253031171330454;39.8818;-26.5838;5.5266;
5253031181330454;40.0282;-26.4008;5.4168;
5253031191330454;40.0282;-26.2788;5.5144;
5253031201330454;40.2112;-26.0958;5.4290;
5253031211330454;40.3332;-25.9372;5.2948;
5253031221330454;40.6016;-25.7420;5.0630;
5253031231330454;40.7358;-25.5834;5.0020;
5253031241330454;40.7846;-25.4858;5.0142;
5253031251330454;40.8334;-25.3638;4.9776;
5253031261330454;40.9554;-25.2784;4.9776;
5253031271330454;41.0896;-25.1320;4.9288;
5253031281330454;41.0896;-25.1320;5.0020;
5253031291330454;41.1262;-25.1198;5.1362;
5253031301330454;41.0164;-25.1076;5.3314;
5253031311330454;41.1262;-25.0954;5.3558;
5253031321330454;41.4800;-25.0710;5.0142;
5253031331330454;41.5410;-25.0954;5.1118;
5253031341330454;41.4922;-25.1198;5.3314;
5253031351330454;41.4922;-25.2052;5.3924;
5253031361330454;41.6508;-25.2296;5.3192;
5253031371330454;41.7484;-25.2418;5.2582;
5253031381330454;42.0656;-25.2906;4.9898;
5253031391330454;42.1022;-25.3638;5.0020;
5253031401330454;41.8704;-25.4736;5.3802;
5253031411330454;41.8826;-25.5468;5.4778;
5253031421330454;41.9314;-25.6444;5.4534;
5253031431330454;41.9802;-25.7054;5.4900;
5253031441330454;41.9192;-25.7664;5.6730;
5253031451330454;41.8582;-25.8884;5.8560;
5253031461330454;41.9192;-25.9372;5.8804;
5253031471330454;41.9070;-26.0226;5.8804;
5253031481330454;41.9070;-26.1080;5.8560;
5253031491330454;41.9436;-26.1812;5.7584;
5253031501330454;42.0412;-26.3154;5.5998;
5253031511330454;42.1632;-26.4252;5.4778;
5253031521330454;42.2974;-26.5106;5.3558;
5253031531330454;42.2730;-26.5472;5.4168;
5253031541330454;42.0412;-26.6936;5.5998;
5253031551330454;41.8826;-26.7668;5.7950;
5253031561330454;41.7728;-26.7912;5.9658;
5253031571330454;41.5776;-26.8766;6.2220;
5253031581330454;41.3214;-26.8766;6.5880;
5253031591330454;41.0286;-26.9132;6.9296;
5253031601330454;40.7480;-26.9742;7.1614;
5253031611330454;40.7846;-27.0596;7.0394;
5253031621330454;40.8578;-27.0596;7.0150;
5253031631330454;40.9066;-27.1206;6.9174;
5253031641330454;40.8090;-27.1694;7.0028;
5253031651330454;40.6870;-27.1206;7.1126;
5253031661330454;40.6870;-27.1328;7.0394;
5253031671330454;40.6504;-27.1328;7.0394;
5253031681330454;40.5040;-27.1450;7.1370;
5253031691330454;40.2844;-27.1206;7.2712;
5253031701330454;40.1380;-27.1206;7.3810;
5253031711330454;40.0404;-27.0596;7.4908;
5253031721330454;40.1380;-26.9986;7.2712;
5253031731330454;40.3576;-27.0108;6.9540;
5253031741330454;40.4674;-26.9864;6.7710;
5253031751330454;40.5528;-26.9132;6.5514;
5253031761330454;40.7236;-26.8278;6.3928;
5253031771330454;40.8944;-26.7790;6.1854;
5253031781330454;40.8334;-26.7180;6.1610;
5253031791330454;40.8578;-26.6692;6.1122;
5253031801330454;40.8456;-26.6082;6.1610;
5253031811330454;40.8456;-26.4984;6.1488;
5253031821330454;40.8578;-26.4252;6.0878;
5253031831330454;40.8578;-26.3398;6.1000;
5253031841330454;40.8578;-26.2544;6.1000;
5253031851330454;40.8334;-26.1324;6.1000;
5253031861330454;40.9798;-26.0470;5.9902;
5253031871330454;41.0774;-26.0104;5.9170;
5253031881330454;41.0530;-25.9128;5.9170;
5253031891330454;41.0652;-25.9006;6.0268;
5253031901330454;41.0286;-25.8030;6.1000;
5253031911330454;41.1140;-25.7298;6.0878;
5253031921330454;41.2360;-25.6566;5.9902;
5253031931330454;41.2238;-25.6078;6.1366;
5253031941330454;41.2360;-25.5712;6.2830;
5253031951330454;41.1018;-25.4736;6.5514;
5253031961330454;41.0530;-25.4492;6.7710;
5253031971330454;41.0042;-25.3638;6.8686;
5253031981330454;41.1140;-25.3638;6.9662;
5253031991330454;41.0652;-25.3882;7.0760;
5253032001330454;41.0652;-25.4248;7.1370;
5253032011330454;41.1628;-25.4248;7.1004;
5253032021330454;41.2116;-25.4126;7.1736;
5253032031330454;41.4068;-25.4614;6.9784;
5253032041330454;41.6020;-25.4980;6.8198;
5253032051330454;41.8094;-25.5224;6.6978;
5253032061330454;41.8582;-25.5224;6.6246;
5253032071330454;41.9192;-25.5346;6.6002;
5253032081330454;41.9558;-25.5956;6.5636;
5253032091330454;42.0534;-25.6322;6.5026;
5253032101330454;42.1022;-25.6688;6.3928;
5253032111330454;42.1510;-25.7054;6.3928;
5253032121330454;42.1388;-25.7542;6.4538;
5253032131330454;42.0290;-25.8274;6.5636;
5253032141330454;42.0046;-25.9616;6.6368;
5253032151330454;42.1510;-26.0104;6.4538;
5253032161330454;42.1144;-26.0714;6.5270;
5253032171330454;42.0290;-26.1446;6.6856;
5253032181330454;41.9924;-26.2300;6.7222;
5253032191330454;41.9436;-26.2422;6.8442;
5253032201330454;41.9802;-26.2910;6.7344;
5253032211330454;41.9680;-26.3642;6.6978;
5253032221330454;41.8582;-26.3886;6.8076;
5253032231330454;41.5044;-26.4008;7.2346;
5253032241330454;41.4556;-26.3764;7.3566;
5253032251330454;41.4678;-26.3764;7.2590;
5253032261330454;41.3336;-26.4130;7.3932;
5253032271330454;41.3092;-26.4740;7.3566;
5253032281330454;41.2238;-26.5228;7.4542;
5253032291330454;41.2970;-26.4984;7.3566;
5253032301330454;41.3824;-26.4374;7.2224;
5253032311330454;41.6874;-26.4008;6.7832;
5253032321330454;41.8216;-26.3642;6.4660;
5253032331330454;41.8704;-26.3520;6.3562;
5253032341330454;41.9802;-26.2666;6.1000;
5253032351330454;41.9314;-26.2544;6.0390;
5253032361330454;41.9070;-26.2178;6.0512;
5253032371330454;41.9192;-26.1446;5.9658;
5253032381330454;42.0778;-26.1324;5.7462;
5253032391330454;42.1266;-26.1568;5.6852;
5253032401330454;41.9802;-26.1568;5.8560;
5253032411330454;41.9192;-26.1568;5.9658;
5253032421330454;41.8094;-26.1934;6.1854;
5253032431330454;41.7362;-26.1690;6.3318;
5253032441330454;41.6874;-26.1446;6.4172;
5253032451330454;41.5044;-26.1690;6.6856;
5253032461330454;41.2116;-26.2056;7.1004;
5253032471330454;40.8334;-26.2422;7.6738;
5253032481330454;40.6504;-26.2422;7.9544;
5253032491330454;40.5772;-26.2300;8.0520;
5253032501330454;40.4552;-26.2422;8.1618;
5253032511330454;40.3332;-26.2422;8.3204;
5253032521330454;40.2478;-26.2910;8.4302;
5253032531330454;40.1502;-26.3154;8.5278;
5253032541330454;40.0526;-26.3520;8.6132;
5253032551330454;39.9794;-26.3642;8.6864;
5253032561330454;39.8574;-26.4618;8.7840;
5253032571330454;39.6622;-26.5716;8.9304;
5253032581330454;39.5768;-26.6814;8.9304;
5253032591330454;39.4670;-26.7790;8.9914;
5253032601330454;39.2474;-26.9010;9.0890;
5253032611330454;39.1498;-27.0474;9.1256;
5253032621330454;39.0888;-27.2304;9.0646;
5253032631330454;39.0644;-27.4134;8.8816;
5253032641330454;39.0522;-27.5964;8.7596;
5253032651330454;38.9668;-27.7550;8.7474;
5253032661330454;38.8570;-27.9136;8.8694;
5253032671330454;38.8204;-28.1576;8.8084;
5253032681330454;38.7838;-28.3284;8.6620;
5253032691330454;38.5276;-28.5480;8.8206;
5253032701330454;38.2104;-28.7188;9.0158;
5253032711330454;37.9176;-28.9018;9.2232;
5253032721330454;37.6736;-29.0238;9.4184;
5253032731330454;37.6248;-29.2434;9.3330;
5253032741330454;37.6248;-29.4386;9.1378;
5253032751330454;37.6248;-29.5728;8.9914;
5253032761330454;37.7590;-29.7436;8.8084;
5253032771330454;37.8688;-29.9144;8.5278;
5253032781330454;38.0762;-30.0486;8.1374;
5253032791330454;38.1982;-30.2072;7.8812;
5253032801330454;38.4544;-30.3902;7.5030;
5253032811330454;38.4788;-30.5000;7.3078;
5253032821330454;38.5276;-30.6586;7.1858;
5253032831330454;38.4788;-30.7928;7.1614;
5253032841330454;38.4300;-30.8782;7.1492;
5253032851330454;38.4422;-30.9880;7.0760;
5253032861330454;38.4788;-31.0734;7.0638;
5253032871330454;38.5764;-31.1222;7.0272;
5253032881330454;38.5398;-31.1832;7.0516;
5253032891330454;38.5032;-31.2442;7.2346;
5253032901330454;38.4056;-31.2808;7.2712;
5253032911330454;38.4300;-31.3174;7.1980;
5253032921330454;38.4544;-31.3906;7.1492;
5253032931330454;38.5520;-31.3906;7.0150;
5253032941330454;38.6252;-31.4516;6.9296;
5253032951330454;38.7960;-31.4760;6.6612;
5253032961330454;38.9912;-31.5492;6.3928;
5253032971330454;39.1498;-31.5980;6.0512;
5253032981330454;39.3938;-31.5980;5.7706;
5253032991330454;39.6134;-31.6346;5.5022;
5253033001330454;39.6622;-31.6224;5.4900;
5253033011330454;39.6622;-31.6468;5.5388;
5253033021330454;39.6866;-31.6346;5.4412;
5253033031330454;39.5158;-31.6224;5.6974;
5253033041330454;39.2596;-31.5858;5.9780;
5253033051330454;39.1498;-31.5370;6.1732;
5253033061330454;39.0034;-31.5004;6.4660;
5253033071330454;38.8204;-31.4150;6.7588;
5253033081330454;38.6374;-31.4272;6.9784;
5253033091330454;38.4910;-31.4028;7.1248;
5253033101330454;38.4544;-31.3784;7.2590;
5253033111330454;38.5276;-31.3418;7.1736;
5253033121330454;38.6008;-31.2930;7.1614;
5253033131330454;38.6496;-31.2198;7.2102;
5253033141330454;38.7960;-31.2076;7.0516;
5253033151330454;38.8814;-31.1832;6.9784;
5253033161330454;39.0766;-31.1222;6.8808;
5253033171330454;39.1864;-31.0612;6.8320;
5253033181330454;39.2840;-31.0246;6.7832;
5253033191330454;39.4060;-31.0124;6.6978;
5253033201330454;39.5524;-30.9636;6.5758;
5253033211330454;39.6866;-30.9270;6.4538;
5253033221330454;39.8208;-30.8416;6.3440;
5253033231330454;40.0160;-30.8172;6.1732;
5253033241330454;39.9916;-30.7684;6.1610;
5253033251330454;40.2234;-30.7440;5.9170;
5253033261330454;40.2722;-30.6586;5.8804;
5253033271330454;40.3088;-30.5854;5.8194;
5253033281330454;40.3820;-30.5366;5.7218;
5253033291330454;40.4308;-30.5000;5.6486;
5253033301330454;40.3454;-30.4634;5.7096;
5253033311330454;40.3576;-30.3902;5.7218;
5253033321330454;40.4308;-30.3902;5.6364;
5253033331330454;40.2966;-30.3414;5.8560;
5253033341330454;40.3332;-30.3536;5.8194;
5253033351330454;40.3210;-30.3536;5.8316;
5253033361330454;40.3332;-30.2926;5.9170;
5253033371330454;40.3332;-30.2560;5.9292;
5253033381330454;40.3332;-30.2438;5.9658;
5253033391330454;40.2844;-30.2316;6.0878;
5253033401330454;40.3820;-30.1462;6.0268;
5253033411330454;40.5528;-30.0486;5.8926;
5253033421330454;40.5162;-29.9876;5.9536;
5253033431330454;40.5772;-29.9144;5.9780;
5253033441330454;40.6382;-29.8900;5.9780;
5253033451330454;40.6748;-29.8656;5.8926;
5253033461330454;40.7480;-29.8290;5.9414;
5253033471330454;40.7236;-29.7924;5.9292;
5253033481330454;40.5772;-29.7680;6.1366;
5253033491330454;40.5162;-29.7802;6.2586;
5253033501330454;40.5040;-29.7436;6.3074;
5253033511330454;40.4674;-29.7558;6.3318;
5253033521330454;40.3088;-29.7436;6.4904;
5253033531330454;40.2234;-29.6826;6.7100;
5253033541330454;40.2478;-29.6338;6.6734;
5253033551330454;40.4064;-29.5850;6.4782;
5253033561330454;40.5162;-29.5240;6.3318;
5253033571330454;40.5650;-29.4508;6.1854;
5253033581330454;40.6870;-29.4142;6.0634;
5253033591330454;40.8578;-29.2922;5.9780;
5253033601330454;40.9432;-29.2556;5.8316;
5253033611330454;40.9676;-29.2312;5.8316;
5253033621330454;40.9798;-29.1946;5.8438;
5253033631330454;41.0286;-29.1580;5.8438;
5253033641330454;41.2726;-29.1214;5.6852;
5253033651330454;41.3946;-29.0726;5.5876;
5253033661330454;41.5044;-29.0116;5.5510;
5253033671330454;41.5532;-29.0116;5.5632;
5253033681330454;41.7362;-28.9140;5.5022;
5253033691330454;41.9070;-28.8530;5.3314;
5253033701330454;41.9680;-28.7554;5.2460;
5253033711330454;42.0168;-28.6700;5.2338;
5253033721330454;41.9802;-28.5968;5.3070;
5253033731330454;41.8948;-28.5480;5.4656;
5253033741330454;41.7728;-28.5236;5.5510;
5253033751330454;41.7240;-28.4260;5.5876;
5253033761330454;41.6874;-28.4138;5.6486;
5253033771330454;41.6264;-28.4016;5.7584;
5253033781330454;41.5654;-28.3650;5.9292;
5253033791330454;41.5044;-28.3406;6.0878;
5253033801330454;41.3336;-28.3406;6.3196;
5253033811330454;41.2482;-28.3406;6.4904;
5253033821330454;41.2482;-28.2552;6.5392;
5253033831330454;41.2360;-28.1820;6.5392;
5253033841330454;41.1750;-28.1332;6.6246;
5253033851330454;41.1506;-28.0844;6.7222;
5253033861330454;41.2238;-28.0478;6.7344;
5253033871330454;41.1506;-28.0356;6.9052;
5253033881330454;41.1628;-27.9746;6.9174;
5253033891330454;41.2238;-27.8770;6.8198;
5253033901330454;41.1506;-27.8770;6.9662;
5253033911330454;41.0286;-27.8404;7.2102;
5253033921330454;40.9432;-27.7672;7.4054;
5253033931330454;40.9432;-27.7428;7.4420;
5253033941330454;40.9188;-27.6940;7.4054;
5253033951330454;40.9798;-27.6330;7.2102;
5253033961330454;41.0896;-27.5842;7.1126;
5253033971330454;41.1628;-27.5476;7.1004;
5253033981330454;41.2360;-27.4988;7.0516;
5253033991330454;41.1872;-27.5354;7.1126;
5253034001330454;41.1750;-27.5354;7.0882;
5253034011330454;41.1384;-27.4744;7.1248;
5253034021330454;41.0652;-27.4256;7.2834;
5253034031330454;40.9798;-27.3890;7.4786;
5253034041330454;40.9798;-27.3768;7.5152;
5253034051330454;40.8822;-27.3280;7.7226;
5253034061330454;40.9310;-27.3280;7.8446;
5253034071330454;41.1506;-27.3036;7.6250;
5253034081330454;41.4800;-27.2670;7.4298;
5253034091330454;41.6142;-27.2304;7.3078;
5253034101330454;41.8094;-27.2304;7.0394;
5253034111330454;42.0656;-27.1938;6.7466;
5253034121330454;42.1876;-27.1938;6.5758;
5253034131330454;42.4194;-27.2304;6.2464;
5253034141330454;42.4316;-27.2304;6.1976;
5253034151330454;42.3950;-27.2182;6.2342;
5253034161330454;42.3096;-27.2426;6.2464;
5253034171330454;42.3462;-27.2792;6.1610;
5253034181330454;42.3096;-27.3158;6.1732;
5253034191330454;42.1998;-27.3768;6.4050;
5253034201330454;42.1510;-27.4012;6.4782;
5253034211330454;42.0900;-27.3646;6.6490;
5253034221330454;42.0900;-27.3890;6.5758;
5253034231330454;42.0534;-27.4012;6.6368;
5253034241330454;42.0412;-27.3768;6.7100;
5253034251330454;41.9924;-27.4256;6.7832;
5253034261330454;41.9680;-27.4378;6.9296;
5253034271330454;41.9070;-27.4622;6.8564;
5253034281330454;41.7362;-27.4744;7.0272;
5253034291330454;41.4800;-27.5720;7.2346;
5253034301330454;41.3214;-27.5720;7.3078;
5253034311330454;41.2604;-27.6330;7.3688;
5253034321330454;41.0286;-27.6940;7.5518;
5253034331330454;40.8334;-27.7306;7.6738;
5253034341330454;40.7724;-27.7916;7.6494;
5253034351330454;40.6748;-27.8404;7.8202;
5253034361330454;40.6870;-27.8526;7.8568;
5253034371330454;40.8700;-27.8648;7.6128;
5253034381330454;40.9798;-27.9014;7.5518;
5253034391330454;41.0164;-27.9502;7.5518;
5253034401330454;41.0164;-28.0234;7.5762;
5253034411330454;41.1262;-28.0478;7.6250;
5253034421330454;41.1628;-28.0600;7.6860;
5253034431330454;41.1750;-28.0844;7.6616;
5253034441330454;41.1506;-28.1576;7.6738;
5253034451330454;41.0042;-28.2430;7.8934;
5253034461330454;40.8944;-28.3162;8.0520;
5253034471330454;40.6748;-28.3772;8.2228;
5253034481330454;40.6504;-28.4138;8.2106;
5253034491330454;40.5406;-28.4870;8.2838;
5253034501330454;40.3942;-28.5724;8.3692;
5253034511330454;40.4186;-28.6212;8.3448;
5253034521330454;40.3576;-28.7188;8.4668;
5253034531330454;40.2478;-28.7920;8.6254;
5253034541330454;40.1136;-28.8530;8.7962;
5253034551330454;40.1502;-28.8652;8.7840;
5253034561330454;40.1624;-28.9262;8.7962;
5253034571330454;40.1624;-28.9262;8.7718;
5253034581330454;40.1136;-28.9628;8.7840;
5253034591330454;40.0038;-29.0116;8.8572;
5253034601330454;39.9672;-28.9994;8.7962;
5253034611330454;40.0892;-28.9750;8.5766;
5253034621330454;40.1624;-28.9872;8.3570;
5253034631330454;40.2478;-29.0482;8.2350;
5253034641330454;40.3576;-29.0482;8.0520;
5253034651330454;40.3820;-29.1092;7.9788;
5253034661330454;40.6260;-29.1336;7.6616;
5253034671330454;40.8212;-29.1824;7.4054;
5253034681330454;40.8944;-29.2434;7.2102;
5253034691330454;40.9066;-29.3044;7.1370;
5253034701330454;41.0164;-29.3166;6.9540;
5253034711330454;41.0042;-29.3288;6.9418;
5253034721330454;40.9066;-29.3898;7.0150;
5253034731330454;40.9432;-29.4142;6.9418;
5253034741330454;40.8090;-29.4630;7.0760;
5253034751330454;40.6748;-29.4874;7.2346;
5253034761330454;40.6626;-29.4996;7.2956;
5253034771330454;40.6748;-29.5484;7.2712;
5253034781330454;40.7724;-29.5606;7.2346;
5253034791330454;40.8456;-29.5728;7.1126;
5253034801330454;40.8090;-29.5850;7.1370;
5253034811330454;40.7846;-29.6094;7.1248;
5253034821330454;40.7480;-29.5850;7.1736;
5253034831330454;40.7602;-29.6094;7.2468;
5253034841330454;40.6992;-29.6216;7.3566;
5253034851330454;40.5772;-29.6338;7.5152;
5253034861330454;40.4186;-29.6704;7.7104;
5253034871330454;40.2722;-29.7070;7.8568;
5253034881330454;40.2600;-29.7436;7.8446;
5253034891330454;40.2234;-29.8046;7.8934;
5253034901330454;40.2112;-29.8412;7.8324;
5253034911330454;40.2478;-29.8534;7.6860;
5253034921330454;40.2600;-29.8900;7.6128;
5253034931330454;40.4308;-29.9144;7.4664;
5253034941330454;40.4308;-29.9266;7.4420;
5253034951330454;40.4186;-29.9754;7.4298;
5253034961330454;40.4552;-30.0120;7.4298;
5253034971330454;40.3942;-30.0364;7.4054;
5253034981330454;40.3332;-30.0852;7.4054;
5253034991330454;40.3332;-30.0974;7.3566;
5253035001330454;40.3454;-30.0974;7.2346;
5253035011330454;40.0160;-30.1340;7.6250;
5253035021330454;40.0038;-30.1706;7.5884;
5253035031330454;40.1746;-30.1706;7.4298;
5253035041330454;40.2356;-30.1706;7.3322;
5253035051330454;40.3332;-30.1950;7.2346;
5253035061330454;40.3820;-30.1828;7.2956;
5253035071330454;40.3820;-30.2194;7.2712;
5253035081330454;40.5162;-30.2804;7.1126;
5253035091330454;40.8212;-30.3292;6.5880;
5253035101330454;40.9920;-30.3414;6.3562;
5253035111330454;41.1384;-30.3658;6.1976;
5253035121330454;41.2238;-30.4146;6.0024;
5253035131330454;41.4068;-30.3780;5.7828;
5253035141330454;41.4434;-30.3902;5.6974;
5253035151330454;41.4312;-30.3780;5.7218;
5253035161330454;41.2604;-30.4024;5.9536;
5253035171330454;41.2238;-30.3902;6.1000;
5253035181330454;41.0042;-30.4146;6.4538;
5253035191330454;40.6504;-30.4512;6.9052;
5253035201330454;40.3942;-30.4024;7.1614;
5253035211330454;40.1990;-30.3902;7.4908;
5253035221330454;40.1380;-30.3658;7.6006;
5253035231330454;40.1380;-30.4024;7.5884;
5253035241330454;40.1746;-30.3902;7.5762;
5253035251330454;40.0526;-30.3536;7.6128;
5253035261330454;40.1258;-30.2804;7.4786;
5253035271330454;40.2356;-30.1950;7.2712;
5253035281330454;40.3332;-30.1950;7.2590;
5253035291330454;40.3088;-30.1828;7.1736;
5253035301330454;40.3576;-30.1340;7.0760;
5253035311330454;40.3576;-30.0242;7.0516;
5253035321330454;40.3210;-29.9510;7.0150;
5253035331330454;40.4796;-29.9144;6.8686;
5253035341330454;40.5284;-29.8656;6.7954;
5253035351330454;40.6138;-29.8534;6.6490;
5253035361330454;40.7480;-29.7314;6.4050;
5253035371330454;40.9432;-29.5850;6.3196;
5253035381330454;40.9920;-29.5240;6.2220;
5253035391330454;40.9920;-29.4630;6.3074;
5253035401330454;41.0774;-29.3654;6.3684;
5253035411330454;41.1018;-29.2556;6.3928;
5253035421330454;41.1994;-29.2068;6.3440;
5253035431330454;41.1994;-29.0848;6.5392;
5253035441330454;41.0896;-29.0116;6.7954;
5253035451330454;40.9798;-29.0238;6.9784;
5253035461330454;40.8578;-28.9994;7.2834;
5253035471330454;40.8334;-28.9628;7.3444;
5253035481330454;40.7358;-28.9140;7.4176;
5253035491330454;40.6504;-28.9018;7.5640;
5253035501330454;40.5284;-28.8408;7.7592;
5253035511330454;40.5162;-28.8042;7.7836;
5253035521330454;40.5406;-28.7798;7.7714;
5253035531330454;40.5284;-28.7066;7.7470;
5253035541330454;40.5772;-28.6456;7.6250;
5253035551330454;40.5162;-28.6456;7.6982;
5253035561330454;40.6260;-28.6212;7.6250;
5253035571330454;40.4308;-28.6090;7.8690;
5253035581330454;40.3942;-28.5724;7.8812;
5253035591330454;40.4430;-28.5846;7.7470;
5253035601330454;40.4552;-28.6090;7.6860;
5253035611330454;40.4552;-28.6212;7.7714;
5253035621330454;40.4796;-28.6212;7.7104;
5253035631330454;40.5162;-28.6334;7.7226;
5253035641330454;40.5528;-28.5968;7.7226;
5253035651330454;40.8212;-28.5602;7.4176;
5253035661330454;40.8090;-28.5236;7.4298;
5253035671330454;40.6748;-28.5358;7.5640;
5253035681330454;40.6016;-28.5236;7.6372;
5253035691330454;40.5650;-28.4748;7.5762;
5253035701330454;40.4552;-28.4870;7.7104;
5253035711330454;40.4430;-28.4504;7.6738;
5253035721330454;40.2844;-28.4870;7.7836;
5253035731330454;40.3088;-28.4870;7.7714;
5253035741330454;40.4308;-28.4992;7.6982;
5253035751330454;40.5528;-28.4260;7.5396;
5253035761330454;40.7602;-28.3528;7.4054;
5253035771330454;40.8822;-28.3650;7.2468;
5253035781330454;40.7724;-28.3406;7.4176;
5253035791330454;40.6626;-28.2674;7.6128;
5253035801330454;40.5406;-28.2308;7.7226;
5253035811330454;40.5284;-28.2064;7.7592;
5253035821330454;40.4430;-28.1820;7.7592;
5253035831330454;40.2600;-28.2186;8.0276;
5253035841330454;40.0770;-28.2552;8.2960;
5253035851330454;39.9306;-28.2796;8.5522;
5253035861330454;40.0770;-28.2674;8.4180;
5253035871330454;40.1746;-28.2918;8.2106;
5253035881330454;40.2966;-28.2674;7.9300;
5253035891330454;40.2478;-28.2796;7.8446;
5253035901330454;40.3088;-28.2796;7.6738;
5253035911330454;40.4430;-28.2674;7.3932;
5253035921330454;40.4430;-28.2430;7.2834;
5253035931330454;40.3820;-28.2918;7.2590;
5253035941330454;40.5406;-28.2674;7.0150;
5253035951330454;40.6016;-28.3040;6.9296;
5253035961330454;40.7358;-28.3406;6.9540;
5253035971330454;40.8456;-28.4016;7.1004;
5253035981330454;40.8578;-28.4992;7.4542;
5253035991330454;41.0286;-28.5114;7.5030;
5253036001330454;41.2726;-28.6212;7.2224;
5253036011330454;41.6020;-28.6212;6.9540;
5253036021330454;41.5410;-28.7188;7.1004;
5253036031330454;41.5532;-28.7554;7.0760;
5253036041330454;41.5044;-28.8408;7.1614;
5253036051330454;41.4678;-28.8652;7.0272;
5253036061330454;41.5288;-28.8408;6.7710;
5253036071330454;41.5044;-28.9018;6.6978;
5253036081330454;41.4556;-28.8896;6.7710;
5253036091330454;41.1628;-28.9384;6.9906;
5253036101330454;41.1506;-28.9262;6.9296;
5253036111330454;41.1628;-28.9994;6.9662;
5253036121330454;41.1994;-28.9872;6.9784;
5253036131330454;41.1750;-29.0238;6.9906;
5253036141330454;41.2238;-29.0482;6.9052;
5253036151330454;41.1750;-28.9994;6.9906;
5253036161330454;41.0164;-28.9628;7.2224;
5253036171330454;41.1262;-28.9140;7.3444;
5253036181330454;41.1872;-28.9018;7.4542;
5253036191330454;41.1994;-28.8530;7.5884;
5253036201330454;41.2238;-28.8286;7.6738;
5253036211330454;41.3214;-28.7798;7.6738;
5253036221330454;41.2482;-28.7432;7.8812;
5253036231330454;41.1994;-28.7554;8.1252;
5253036241330454;41.2482;-28.7432;8.1374;
5253036251330454;41.3336;-28.7310;7.9788;
5253036261330454;41.4312;-28.6334;7.7836;
5253036271330454;41.5410;-28.5602;7.4664;
5253036281330454;41.6508;-28.4626;7.1614;
5253036291330454;41.5654;-28.4382;7.1004;
5253036301330454;41.4434;-28.3894;7.1492;
5253036311330454;41.3214;-28.3406;7.0394;
5253036321330454;41.3214;-28.3040;6.8442;
5253036331330454;41.3336;-28.2064;6.7710;
5253036341330454;41.1872;-28.1942;6.9174;
5253036351330454;41.1384;-28.1088;6.9662;
5253036361330454;41.0164;-28.0966;7.0394;
5253036371330454;41.1994;-27.9624;6.7466;
5253036381330454;41.4556;-27.8038;6.3318;
5253036391330454;41.7728;-27.6330;5.8682;
5253036401330454;41.9436;-27.4622;5.6120;
5253036411330454;42.1144;-27.2670;5.3558;
5253036421330454;42.2242;-27.0718;5.0874;
5253036431330454;42.2486;-26.8400;5.0630;
5253036441330454;42.3706;-26.5594;4.8556;
5253036451330454;42.2242;-26.3032;4.9410;
5253036461330454;42.1998;-26.0958;4.8678;
5253036471330454;42.1266;-25.8396;4.7824;
5253036481330454;42.0534;-25.5956;4.7214;
5253036491330454;41.6630;-25.3028;5.0508;
5253036501330454;41.5654;-24.9978;5.0386;
5253036511330454;41.6020;-24.7050;4.8556;
5253036521330454;41.6020;-24.4488;4.7946;
5253036531330454;41.6752;-24.1682;4.6726;
5253036541330454;41.6630;-23.8388;4.7824;
5253036551330454;41.5166;-23.5826;4.9410;
5253036561330454;41.3702;-23.2776;5.1850;
5253036571330454;41.5532;-23.0092;4.9776;
5253036581330454;41.5654;-22.7530;4.9776;
5253036591330454;41.3946;-22.5456;5.1484;
5253036601330454;41.2604;-22.2772;5.2704;
5253036611330454;41.1140;-22.0942;5.5266;
5253036621330454;40.9432;-21.9112;5.6730;
5253036631330454;40.9188;-21.7404;5.7706;
5253036641330454;40.8700;-21.5696;5.9170;
5253036651330454;40.7114;-21.5208;6.1000;
5253036661330454;40.5406;-21.4354;6.3806;
5253036671330454;40.5406;-21.3256;6.5026;
5253036681330454;40.3942;-21.2402;6.8564;
5253036691330454;40.3088;-21.2280;7.0150;
5253036701330454;40.2112;-21.2158;7.2224;
5253036711330454;40.4064;-21.1914;7.1614;
5253036721330454;40.4186;-21.2036;7.2834;
5253036731330454;40.4186;-21.2158;7.4420;
5253036741330454;40.3576;-21.2646;7.7470;
5253036751330454;40.2844;-21.3622;7.9300;
5253036761330454;40.3210;-21.4964;8.0154;
5253036771330454;40.3454;-21.5452;8.1740;
5253036781330454;40.5162;-21.6428;8.1496;
5253036791330454;40.3576;-21.7892;8.5766;
5253036801330454;40.3088;-21.9234;8.7108;
5253036811330454;40.4064;-22.0332;8.8328;
5253036821330454;40.5406;-22.2162;8.7596;
5253036831330454;40.6382;-22.3748;8.8450;
5253036841330454;40.7236;-22.5578;8.8694;
5253036851330454;40.7358;-22.7164;8.8816;
5253036861330454;40.5528;-22.9360;9.1988;
5253036871330454;40.4308;-23.1068;9.3330;
5253036881330454;40.5162;-23.2898;9.3330;
5253036891330454;40.5284;-23.5094;9.2964;
5253036901330454;40.5162;-23.6558;9.3330;
5253036911330454;40.4918;-23.8388;9.3940;
5253036921330454;40.4308;-23.9974;9.5282;
5253036931330454;40.3454;-24.1804;9.7600;
5253036941330454;40.3576;-24.2780;9.8088;
5253036951330454;40.4186;-24.4366;9.7966;
5253036961330454;40.3576;-24.5952;9.8576;
5253036971330454;40.3210;-24.6928;10.0772;
5253036981330454;40.3088;-24.8026;10.1504;
5253036991330454;40.2478;-24.9124;10.2114;
5253037001330454;40.3576;-25.0222;10.1504;
5253037011330454;40.4064;-25.1442;10.1138;
5253037021330454;40.5040;-25.2906;10.0406;
5253037031330454;40.6382;-25.3516;9.9796;
5253037041330454;40.7846;-25.4614;9.8698;
5253037051330454;40.7968;-25.5834;9.7966;
5253037061330454;40.8944;-25.6932;9.7478;
5253037071330454;40.9920;-25.7908;9.6258;
5253037081330454;41.0408;-25.9006;9.5892;
5253037091330454;41.1750;-25.9982;9.3696;
5253037101330454;41.3336;-26.1080;9.0890;
5253037111330454;41.3214;-26.2178;9.0402;
5253037121330454;41.3336;-26.3764;9.0402;
5253037131330454;41.2848;-26.4618;9.1622;
5253037141330454;41.2116;-26.5960;9.1744;
5253037151330454;41.0164;-26.7058;9.4672;
5253037161330454;40.8090;-26.8278;9.6624;
5253037171330454;40.7236;-26.9376;9.7478;
5253037181330454;40.6382;-27.0352;9.9430;
5253037191330454;40.3210;-27.1572;10.3578;
5253037201330454;40.0892;-27.2792;10.5408;
5253037211330454;39.9550;-27.4012;10.6628;
5253037221330454;39.8818;-27.4500;10.7726;
5253037231330454;40.0282;-27.5354;10.5896;
5253037241330454;40.0648;-27.5964;10.5164;
5253037251330454;39.9184;-27.6452;10.5530;
5253037261330454;39.7598;-27.7306;10.6994;
5253037271330454;39.8208;-27.7672;10.4920;
5253037281330454;39.8696;-27.8038;10.4676;
5253037291330454;40.0404;-27.8282;10.1870;
5253037301330454;40.0160;-27.9258;10.1138;
5253037311330454;40.0038;-27.9746;10.0406;
5253037321330454;40.0526;-28.0112;9.8332;
5253037331330454;40.1258;-28.0722;9.8088;
5253037341330454;40.1990;-28.1088;9.6868;
5253037351330454;40.2722;-28.1698;9.5404;
5253037361330454;40.3820;-28.1332;9.3696;
5253037371330454;40.4308;-28.1698;9.1988;
5253037381330454;40.6016;-28.0966;9.0158;
5253037391330454;40.7114;-28.0844;8.8938;
5253037401330454;40.8578;-28.0600;8.7352;
5253037411330454;41.0164;-28.0356;8.5888;
5253037421330454;41.0530;-27.9868;8.6132;
5253037431330454;41.0774;-27.9502;8.6010;
5253037441330454;41.0774;-27.9014;8.6132;
5253037451330454;41.0774;-27.8526;8.7352;
5253037461330454;41.0530;-27.8282;8.7962;
5253037471330454;40.9676;-27.8038;8.9548;
5253037481330454;40.8944;-27.7672;9.1012;
5253037491330454;40.7846;-27.8038;9.2720;
5253037501330454;40.6504;-27.7916;9.4428;
5253037511330454;40.6382;-27.7550;9.6136;
5253037521330454;40.5894;-27.7184;9.7478;
5253037531330454;40.5650;-27.6940;9.8454;
5253037541330454;40.5650;-27.6818;9.9430;
5253037551330454;40.7602;-27.5842;9.7478;
5253037561330454;40.9554;-27.5232;9.6868;
5253037571330454;41.1384;-27.4012;9.5648;
5253037581330454;41.5410;-27.3280;9.1988;
5253037591330454;41.7850;-27.3036;8.8694;
5253037601330454;41.9436;-27.2426;8.6498;
5253037611330454;42.1144;-27.2182;8.4790;
5253037621330454;42.3340;-27.1816;8.2594;
5253037631330454;42.2852;-27.1938;8.3692;
5253037641330454;42.2364;-27.1694;8.4546;
5253037651330454;42.1266;-27.2182;8.4912;
5253037661330454;41.9680;-27.2548;8.6986;
5253037671330454;41.8582;-27.2548;8.8816;
5253037681330454;41.8582;-27.2670;8.9182;
5253037691330454;41.9436;-27.2792;8.7962;
5253037701330454;41.8826;-27.2914;8.7474;
5253037711330454;41.8094;-27.3158;8.7962;
5253037721330454;41.8338;-27.3768;8.7352;
5253037731330454;42.0168;-27.4134;8.5766;
5253037741330454;42.1388;-27.4256;8.3936;
5253037751330454;42.2486;-27.4744;8.1862;
5253037761330454;42.3950;-27.5720;8.0154;
5253037771330454;42.3584;-27.6086;7.9910;
5253037781330454;42.3950;-27.7062;7.9544;
5253037791330454;42.5170;-27.7428;7.6982;
5253037801330454;42.4926;-27.8282;7.6494;
5253037811330454;42.4438;-27.8770;7.6250;
5253037821330454;42.4438;-27.9380;7.4908;
5253037831330454;42.4316;-28.0112;7.4542;
5253037841330454;42.2608;-28.1088;7.5640;
5253037851330454;42.1876;-28.1820;7.6006;
5253037861330454;42.3950;-28.1698;7.2590;
5253037871330454;42.2364;-28.2674;7.4664;
5253037881330454;42.0778;-28.3162;7.5762;
5253037891330454;41.9558;-28.3650;7.6616;
5253037901330454;41.7728;-28.4626;7.8080;
5253037911330454;41.6630;-28.5480;7.8324;
5253037921330454;41.5898;-28.5724;7.8568;
5253037931330454;41.3824;-28.6334;8.0886;
5253037941330454;40.9432;-28.7920;8.5644;
5253037951330454;40.7968;-28.8774;8.6986;
5253037961330454;40.6260;-28.9384;8.9182;
5253037971330454;40.5040;-29.0116;9.0646;
5253037981330454;40.4674;-29.0116;9.1744;
5253037991330454;40.3820;-29.0238;9.3452;
5253038001330454;40.1746;-29.0970;9.5404;
5253038011330454;40.1136;-29.1946;9.5892;
5253038021330454;39.9916;-29.2312;9.7478;
5253038031330454;40.1380;-29.2434;9.5282;
5253038041330454;40.1990;-29.3410;9.3574;
5253038051330454;40.3210;-29.3776;9.0890;
5253038061330454;40.3210;-29.4874;8.9670;
5253038071330454;40.3820;-29.5728;8.7718;
5253038081330454;40.6260;-29.6094;8.4668;
5253038091330454;40.7602;-29.6460;8.1862;
5253038101330454;40.8700;-29.7558;7.8934;
5253038111330454;40.7602;-29.8290;7.9056;
5253038121330454;40.7602;-29.9144;7.8446;
5253038131330454;40.5162;-30.0486;7.9666;
5253038141330454;40.4796;-30.0852;7.8690;
5253038151330454;40.4552;-30.1828;7.6982;
5253038161330454;40.3942;-30.2926;7.5640;
5253038171330454;40.4308;-30.3658;7.3688;
5253038181330454;40.5162;-30.4390;7.1492;
5253038191330454;40.5772;-30.4878;6.9784;
5253038201330454;40.7236;-30.5122;6.6368;
5253038211330454;40.9554;-30.4878;6.3806;
5253038221330454;40.9554;-30.5488;6.3074;
5253038231330454;40.9432;-30.5732;6.2952;
5253038241330454;40.9188;-30.5488;6.3684;
5253038251330454;40.6626;-30.5854;6.4294;
5253038261330454;40.5894;-30.5732;6.5880;
5253038271330454;40.5284;-30.6220;6.5514;
5253038281330454;40.4918;-30.6220;6.5758;
5253038291330454;40.4796;-30.6342;6.6246;
5253038301330454;40.4552;-30.6342;6.5880;
5253038311330454;40.4430;-30.6830;6.6246;
5253038321330454;40.4674;-30.7562;6.4782;
5253038331330454;40.5406;-30.8050;6.4538;
5253038341330454;40.5772;-30.7806;6.3806;
5253038351330454;40.4674;-30.7928;6.4904;
5253038361330454;40.4308;-30.7806;6.6124;
5253038371330454;40.2844;-30.8172;6.7222;
5253038381330454;40.1868;-30.8416;6.8686;
5253038391330454;40.1014;-30.7928;7.0150;
5253038401330454;39.8452;-30.7684;7.3566;
5253038411330454;39.8696;-30.6830;7.4908;
5253038421330454;39.7598;-30.6586;7.6494;
5253038431330454;39.8208;-30.6220;7.6006;
5253038441330454;39.6866;-30.5732;7.7226;
5253038451330454;39.6012;-30.5854;7.7714;
5253038461330454;39.5158;-30.5366;7.9544;
5253038471330454;39.3450;-30.5244;8.1130;
5253038481330454;39.3572;-30.5000;8.1008;
5253038491330454;39.1864;-30.4756;8.3204;
5253038501330454;38.9790;-30.4756;8.4912;
5253038511330454;38.8814;-30.4512;8.6254;
5253038521330454;38.8570;-30.4146;8.6254;
5253038531330454;38.8692;-30.3658;8.6986;
5253038541330454;38.8936;-30.4024;8.6376;
5253038551330454;38.9302;-30.3902;8.6376;
5253038561330454;38.9424;-30.3902;8.6742;
5253038571330454;39.0034;-30.4146;8.5156;
5253038581330454;39.0522;-30.4390;8.5156;
5253038591330454;39.0888;-30.4390;8.4790;
5253038601330454;39.1132;-30.4634;8.4546;
5253038611330454;39.0400;-30.4512;8.5278;
5253038621330454;39.0156;-30.4024;8.5156;
5253038631330454;39.0034;-30.3658;8.4546;
5253038641330454;38.8204;-30.3414;8.5278;
5253038651330454;38.9180;-30.3536;8.5156;
5253038661330454;39.0400;-30.3048;8.4668;
5253038671330454;39.0644;-30.3048;8.4180;
5253038681330454;39.0278;-30.3048;8.4302;
5253038691330454;39.1498;-30.2682;8.1740;
5253038701330454;39.4548;-30.2926;7.8934;
5253038711330454;39.7232;-30.2560;7.6616;
5253038721330454;40.0648;-30.2316;7.2956;
5253038731330454;40.1136;-30.1828;7.1370;
5253038741330454;40.1868;-30.1340;6.9296;
5253038751330454;40.2600;-30.0730;6.8564;
5253038761330454;40.3454;-30.0242;6.8320;
5253038771330454;40.4308;-29.9754;6.9052;
5253038781330454;40.1868;-29.9388;7.0882;
5253038791330454;40.0038;-29.9388;7.4054;
5253038801330454;40.0038;-29.9266;7.5152;
5253038811330454;40.0404;-29.8900;7.5884;
5253038821330454;40.0038;-29.8900;7.6494;
5253038831330454;40.0160;-29.8900;7.7226;
5253038841330454;40.0404;-29.9388;7.7714;
5253038851330454;40.0038;-29.9510;7.8446;
5253038861330454;40.0892;-29.9266;7.9056;
5253038871330454;40.1624;-29.9266;7.6616;
5253038881330454;40.2356;-29.8412;7.6006;
5253038891330454;40.3820;-29.8412;7.4664;
5253038901330454;40.5406;-29.8168;7.3322;
5253038911330454;40.5894;-29.8046;7.2956;
5253038921330454;40.6260;-29.7680;7.1370;
5253038931330454;40.7114;-29.7314;7.0150;
5253038941330454;40.7968;-29.7070;6.9052;
5253038951330454;40.7358;-29.6826;7.0516;
5253038961330454;40.5284;-29.7070;7.3810;
5253038971330454;40.2112;-29.7192;7.6616;
5253038981330454;40.0160;-29.7314;7.9056;
5253038991330454;39.9550;-29.7436;8.0276;
5253039001330454;39.9184;-29.7436;8.0886;
5253039011330454;39.9672;-29.7436;8.1618;
5253039021330454;39.8452;-29.7314;8.2106;
5253039031330454;39.8696;-29.6826;8.1618;
5253039041330454;39.9306;-29.7192;8.1130;
5253039051330454;40.1380;-29.6948;7.9422;
5253039061330454;40.2112;-29.6338;7.9178;
5253039071330454;40.1624;-29.6460;7.8934;
5253039081330454;40.1380;-29.6460;8.0032;
5253039091330454;40.1868;-29.6216;7.8202;
5253039101330454;40.3576;-29.6460;7.6250;
5253039111330454;40.4796;-29.6582;7.5396;
5253039121330454;40.5650;-29.6460;7.4176;
5253039131330454;40.4796;-29.6704;7.4420;
5253039141330454;40.6016;-29.6948;7.3566;
5253039151330454;40.7480;-29.6948;7.1736;
5253039161330454;40.8822;-29.6948;6.9418;
5253039171330454;40.9798;-29.7070;6.8930;
5253039181330454;40.9188;-29.7070;7.0150;
5253039191330454;40.9676;-29.7314;6.9662;
5253039201330454;40.9676;-29.7314;6.9296;
5253039211330454;41.0042;-29.7314;6.9540;
5253039221330454;40.9066;-29.7680;7.0150;
5253039231330454;40.7724;-29.7436;7.1858;
5253039241330454;40.6992;-29.7558;7.3810;
5253039251330454;40.3454;-29.8290;7.6494;
5253039261330454;40.2356;-29.8290;7.7836;
5253039271330454;40.1502;-29.8290;7.8080;
5253039281330454;40.1746;-29.8778;7.6494;
5253039291330454;40.2112;-29.8656;7.5030;
5253039301330454;40.2112;-29.9144;7.3810;
5253039311330454;40.1380;-29.9632;7.3688;
5253039321330454;40.0770;-30.0242;7.2956;
5253039331330454;40.0770;-30.0486;7.2346;
5253039341330454;40.0770;-30.0974;7.2102;
5253039351330454;40.1380;-30.1706;6.9784;
5253039361330454;40.0404;-30.1828;6.9906;
5253039371330454;39.9428;-30.2316;7.0272;
5253039381330454;39.8330;-30.2316;7.0882;
5253039391330454;39.9062;-30.2194;7.0760;
5253039401330454;39.9794;-30.1950;6.9784;
5253039411330454;40.1990;-30.1584;6.7344;
5253039421330454;40.4674;-30.1218;6.3806;
5253039431330454;40.5650;-30.0852;6.3562;
5253039441330454;40.7846;-30.0608;6.2220;
5253039451330454;40.9432;-30.0608;6.0756;
5253039461330454;41.1018;-30.0364;5.9780;
5253039471330454;41.1384;-30.0730;5.8072;
5253039481330454;41.0286;-30.0364;5.8926;
5253039491330454;40.8456;-30.0974;6.0634;
5253039501330454;40.7114;-30.1218;6.1976;
5253039511330454;40.5772;-30.1584;6.3562;
5253039521330454;40.3942;-30.1828;6.4660;
5253039531330454;40.2600;-30.1950;6.6734;
5253039541330454;40.1624;-30.1950;6.7832;
5253039551330454;40.2234;-30.1462;6.7466;
5253039561330454;40.3454;-30.1706;6.6612;
5253039571330454;40.5406;-30.1340;6.5514;
5253039581330454;40.6260;-30.1462;6.4904;
5253039591330454;40.6626;-30.0974;6.4782;
5253039601330454;40.7480;-30.1096;6.4050;
5253039611330454;40.9554;-30.1218;6.1488;
5253039621330454;41.1018;-30.1462;5.9536;
5253039631330454;41.2116;-30.1584;5.8926;
5253039641330454;41.1994;-30.1828;5.9170;
5253039651330454;41.1384;-30.1706;5.9902;
5253039661330454;40.9798;-30.1706;6.2098;
5253039671330454;40.8700;-30.2560;6.2586;
5253039681330454;40.7480;-30.2804;6.4416;
5253039691330454;40.7602;-30.2438;6.4294;
5253039701330454;40.7358;-30.2438;6.5148;
5253039711330454;40.6748;-30.2560;6.5758;
5253039721330454;40.7724;-30.2804;6.4294;
5253039731330454;40.9188;-30.2926;6.1610;
5253039741330454;41.0530;-30.3414;6.0024;
5253039751330454;41.1994;-30.3048;5.7950;
5253039761330454;41.4068;-30.2682;5.5876;
5253039771330454;41.2360;-30.3292;5.6364;
5253039781330454;41.1872;-30.3414;5.5632;
5253039791330454;41.0774;-30.3536;5.5510;
5253039801330454;40.8700;-30.3292;5.6486;
5253039811330454;40.6138;-30.3780;5.9048;
5253039821330454;40.4430;-30.3536;5.9536;
5253039831330454;40.3698;-30.3414;6.0878;
5253039841330454;40.2356;-30.3414;6.1366;
5253039851330454;40.2356;-30.2926;6.2098;
5253039861330454;40.1868;-30.2804;6.2952;
5253039871330454;40.1502;-30.3170;6.4294;
5253039881330454;40.3576;-30.3170;6.1732;
5253039891330454;40.2478;-30.2560;6.3440;
5253039901330454;40.3332;-30.2560;6.2464;
5253039911330454;40.3210;-30.3292;6.2708;
5253039921330454;40.3210;-30.3536;6.2708;
5253039931330454;40.3088;-30.3780;6.1122;
5253039941330454;40.3210;-30.4146;5.9902;
5253039951330454;40.3576;-30.4268;5.7584;
5253039961330454;40.2356;-30.4268;5.9902;
5253039971330454;40.4918;-30.4512;5.6242;
5253039981330454;40.5406;-30.4756;5.4900;
5253039991330454;40.5406;-30.4024;5.4656;
5253040001330454;40.4796;-30.4146;5.4778;
5253040011330454;40.4430;-30.3902;5.6730;
5253040021330454;40.5650;-30.3414;5.5876;
5253040031330454;40.5650;-30.3048;5.6242;
5253040041330454;40.5406;-30.2804;5.6364;
5253040051330454;40.3576;-30.2438;5.8194;
5253040061330454;40.2844;-30.2072;5.9658;
5253040071330454;40.2234;-30.1584;6.0390;
5253040081330454;40.1502;-30.0974;6.0146;
5253040091330454;40.1990;-30.0486;5.9414;
5253040101330454;40.0526;-29.9998;6.1000;
5253040111330454;40.1868;-29.9632;5.9414;
5253040121330454;40.3820;-29.9144;5.7584;
5253040131330454;40.5894;-29.8656;5.4534;
5253040141330454;40.7114;-29.7802;5.3680;
5253040151330454;40.9554;-29.7436;5.1118;
5253040161330454;41.1628;-29.6582;5.0752;
5253040171330454;41.2726;-29.6094;4.9776;
5253040181330454;41.4190;-29.5362;4.8678;
5253040191330454;41.4556;-29.4264;4.9166;
5253040201330454;41.4312;-29.3532;4.9288;
5253040211330454;41.4922;-29.2434;4.9898;
5253040221330454;41.5166;-29.1702;5.0142;
5253040231330454;41.3824;-29.0848;5.0996;
5253040241330454;41.3580;-29.0116;5.0996;
5253040251330454;41.2970;-28.9384;5.1606;
5253040261330454;41.3092;-28.8652;5.1850;
5253040271330454;41.3214;-28.7798;5.2216;
5253040281330454;41.4068;-28.6578;5.2094;
5253040291330454;41.3580;-28.6090;5.2948;
5253040301330454;41.2970;-28.5358;5.3802;
5253040311330454;41.3824;-28.4748;5.3802;
5253040321330454;41.4922;-28.4260;5.2216;
5253040331330454;41.4556;-28.3894;5.2460;
5253040341330454;41.5654;-28.3284;5.1606;
5253040351330454;41.5532;-28.2796;5.1484;
5253040361330454;41.5776;-28.2796;5.1118;
5253040371330454;41.7118;-28.2186;5.0020;
5253040381330454;41.8582;-28.1942;4.8922;
5253040391330454;41.8582;-28.1088;4.9776;
5253040401330454;41.7118;-28.0478;5.3558;
5253040411330454;41.6508;-27.9624;5.5998;
5253040421330454;41.4922;-27.9014;5.7950;
5253040431330454;41.2604;-27.8770;6.1854;
5253040441330454;41.0774;-27.8160;6.4660;
5253040451330454;40.8822;-27.7550;6.7832;
5253040461330454;40.7724;-27.6940;6.9784;
5253040471330454;40.7602;-27.6574;6.9784;
5253040481330454;40.8700;-27.6330;6.9052;
5253040491330454;41.0896;-27.5842;6.6734;
5253040501330454;41.1872;-27.5476;6.6490;
5253040511330454;41.3580;-27.4500;6.5270;
5253040521330454;41.3458;-27.4012;6.5880;
5253040531330454;41.2970;-27.3402;6.7588;
5253040541330454;41.2726;-27.3036;6.9052;
5253040551330454;41.2482;-27.2914;7.0394;
5253040561330454;41.1750;-27.2060;7.1980;
5253040571330454;41.0042;-27.1694;7.4298;
5253040581330454;40.9188;-27.1450;7.6128;
5253040591330454;40.9066;-27.1816;7.7592;
5253040601330454;40.8700;-27.1694;7.8934;
5253040611330454;40.9432;-27.1816;7.8812;
5253040621330454;40.8822;-27.2060;7.9544;
5253040631330454;40.8578;-27.1938;8.0520;
5253040641330454;40.8578;-27.2182;8.2350;
5253040651330454;40.7114;-27.2548;8.4302;
5253040661330454;40.6260;-27.2670;8.6742;
5253040671330454;40.5162;-27.3036;8.7962;
5253040681330454;40.4796;-27.3524;8.8938;
5253040691330454;40.4186;-27.3524;9.0524;
5253040701330454;40.3576;-27.3890;9.1378;
5253040711330454;40.2478;-27.4622;9.4062;
5253040721330454;40.1624;-27.5110;9.4672;
5253040731330454;40.3942;-27.5476;9.3086;
5253040741330454;40.4674;-27.6208;9.2354;
5253040751330454;40.4186;-27.6696;9.3208;
5253040761330454;40.5040;-27.6940;9.4184;
5253040771330454;40.6382;-27.7550;9.3574;
5253040781330454;40.7236;-27.7428;9.3208;
5253040791330454;40.7602;-27.7672;9.1988;
5253040801330454;40.8334;-27.7794;9.1256;
5253040811330454;40.8334;-27.7794;9.2354;
5253040821330454;40.8822;-27.7916;9.2842;
5253040831330454;40.9432;-27.8160;9.2232;
5253040841330454;40.9554;-27.8526;9.1866;
5253040851330454;40.7846;-27.9014;9.3208;
5253040861330454;40.7846;-27.9624;9.3330;
5253040871330454;40.8700;-27.9502;9.3940;
5253040881330454;40.8334;-28.0112;9.5282;
5253040891330454;40.6260;-28.0966;9.7112;
5253040901330454;40.4796;-28.1332;9.8698;
5253040911330454;40.4186;-28.1576;10.0284;
5253040921330454;40.3820;-28.2064;10.0528;
5253040931330454;40.2600;-28.2674;10.2480;
5253040941330454;40.0892;-28.3528;10.5774;
5253040951330454;39.8940;-28.4748;10.7116;
5253040961330454;39.8452;-28.5358;10.7848;
5253040971330454;39.8208;-28.6212;10.8702;
5253040981330454;39.6256;-28.6944;11.1020;
5253040991330454;39.5280;-28.7554;11.2728;
5253041001330454;39.3450;-28.8042;11.4680;
5253041011330454;39.4182;-28.8408;11.3582;
5253041021330454;39.5158;-28.8774;11.2484;
5253041031330454;39.6012;-28.8896;11.1996;
5253041041330454;39.5646;-28.9506;11.1386;
5253041051330454;39.6256;-28.9750;11.0410;
5253041061330454;39.6988;-29.0238;10.9800;
5253041071330454;39.7964;-29.0848;10.7848;
5253041081330454;39.8940;-29.1702;10.6506;
5253041091330454;39.9062;-29.2434;10.6506;
5253041101330454;39.9062;-29.3166;10.5286;
5253041111330454;39.7720;-29.4020;10.5896;
5253041121330454;39.7598;-29.4508;10.6262;
5253041131330454;39.7354;-29.5240;10.6018;
5253041141330454;39.6988;-29.6094;10.5774;
5253041151330454;39.5890;-29.6460;10.6750;
5253041161330454;39.6012;-29.7192;10.5896;
5253041171330454;39.5402;-29.7680;10.6018;
5253041181330454;39.3084;-29.8290;10.8824;
5253041191330454;39.3450;-29.8900;10.8336;
5253041201330454;39.3084;-30.0120;10.8336;
5253041211330454;39.2352;-30.1096;10.8702;
5253041221330454;39.2596;-30.2072;10.7482;
5253041231330454;39.2840;-30.3170;10.6750;
5253041241330454;39.1132;-30.3658;10.8336;
5253041251330454;39.1254;-30.4878;10.7360;
5253041261330454;39.2352;-30.5488;10.5164;
5253041271330454;39.2474;-30.6220;10.5164;
5253041281330454;39.1986;-30.6464;10.5896;
5253041291330454;39.3084;-30.7074;10.4432;
5253041301330454;39.3816;-30.7318;10.3090;
5253041311330454;39.4548;-30.7928;10.0894;
5253041321330454;39.4548;-30.8904;9.8942;
5253041331330454;39.3572;-30.9270;9.7966;
5253041341330454;39.3816;-30.9636;9.7356;
5253041351330454;39.4060;-30.9636;9.5648;
5253041361330454;39.5524;-30.9880;9.2232;
5253041371330454;39.5524;-30.9880;9.0524;
5253041381330454;39.5890;-30.9636;8.9182;
5253041391330454;39.6012;-30.9514;8.9060;
5253041401330454;39.7354;-30.9026;8.7352;
5253041411330454;39.9306;-30.8172;8.6132;
5253041421330454;40.0526;-30.7806;8.3082;
5253041431330454;40.1258;-30.7684;8.0764;
5253041441330454;40.1258;-30.6952;8.0032;
5253041451330454;40.0038;-30.6708;8.1618;
5253041461330454;40.0282;-30.6708;8.1496;
5253041471330454;39.9428;-30.6830;8.1984;
5253041481330454;39.7720;-30.6708;8.3814;
5253041491330454;39.5402;-30.7562;8.6620;
5253041501330454;39.4060;-30.7928;8.8328;
5253041511330454;39.3450;-30.8294;8.9548;
5253041521330454;39.3450;-30.9026;9.0158;
5253041531330454;39.3938;-30.9392;8.9060;
5253041541330454;39.2596;-31.0002;9.0280;
5253041551330454;39.1986;-31.0490;9.1378;
5253041561330454;39.2230;-31.1344;9.1134;
5253041571330454;39.3938;-31.1344;8.9304;
5253041581330454;39.4670;-31.1710;8.7596;
5253041591330454;39.6378;-31.2320;8.5766;
5253041601330454;39.7964;-31.2442;8.2594;
5253041611330454;40.0404;-31.2686;7.9544;
5253041621330454;40.2478;-31.2686;7.7592;
5253041631330454;40.3698;-31.2930;7.5518;
5253041641330454;40.4796;-31.2442;7.4420;
5253041651330454;40.4430;-31.2686;7.4176;
5253041661330454;40.2722;-31.2930;7.7470;
5253041671330454;40.0648;-31.2808;8.0398;
5253041681330454;39.8208;-31.3418;8.4424;
5253041691330454;39.6256;-31.3906;8.7230;
5253041701330454;39.5036;-31.3906;8.7962;
5253041711330454;39.5036;-31.4272;8.8328;
5253041721330454;39.5524;-31.4760;8.8450;
5253041731330454;39.5524;-31.4882;8.8084;
5253041741330454;39.6134;-31.5248;8.7718;
5253041751330454;39.5524;-31.5980;8.7108;
5253041761330454;39.4060;-31.7078;8.7962;
5253041771330454;39.2718;-31.7566;9.0158;
5253041781330454;39.0888;-31.8298;9.2842;
5253041791330454;38.9424;-31.9030;9.4550;
5253041801330454;38.6984;-32.0494;9.6380;
5253041811330454;38.4666;-32.1348;9.8332;
5253041821330454;38.2836;-32.2080;9.9674;
5253041831330454;38.1982;-32.2568;10.1138;
5253041841330454;38.1494;-32.2934;10.1382;
5253041851330454;38.1372;-32.3422;10.0162;
5253041861330454;38.1860;-32.4154;9.7966;
5253041871330454;38.1250;-32.4764;9.7600;
5253041881330454;38.2836;-32.4642;9.4794;
5253041891330454;38.4910;-32.5130;9.0890;
5253041901330454;38.6252;-32.5984;8.6498;
5253041911330454;38.6984;-32.6838;8.3082;
5253041921330454;38.7960;-32.6960;8.0154;
5253041931330454;38.8692;-32.7448;7.7348;
5253041941330454;38.9668;-32.7692;7.4786;
5253041951330454;39.2230;-32.7692;6.9662;
5253041961330454;39.3938;-32.7692;6.5392;
5253041971330454;39.3694;-32.7814;6.5392;
5253041981330454;39.4304;-32.7326;6.4416;
5253041991330454;39.5524;-32.6838;6.2708;
5253042001330454;39.6500;-32.6594;6.0268;
5253042011330454;39.6744;-32.6106;5.9048;
5253042021330454;39.5646;-32.5984;5.8682;
5253042031330454;39.4670;-32.5984;5.9780;
5253042041330454;39.2230;-32.5862;6.2952;
5253042051330454;39.0644;-32.5862;6.3806;
5253042061330454;38.9912;-32.5740;6.5026;
5253042071330454;38.7960;-32.5618;6.6856;
5253042081330454;38.6862;-32.5130;6.8930;
5253042091330454;38.6740;-32.5252;6.9174;
5253042101330454;38.7716;-32.5008;6.8442;
5253042111330454;38.8692;-32.4398;6.7100;
5253042121330454;39.0156;-32.4154;6.4782;
5253042131330454;39.2840;-32.3910;6.1610;
5253042141330454;39.4670;-32.3178;5.8926;
5253042151330454;39.6378;-32.2690;5.6486;
5253042161330454;39.6378;-32.2690;5.6120;
5253042171330454;39.4670;-32.2568;5.7828;
5253042181330454;39.2230;-32.2324;6.0634;
5253042191330454;38.9546;-32.2202;6.3806;
5253042201330454;38.8448;-32.1958;6.4904;
5253042211330454;38.8204;-32.1348;6.5758;
5253042221330454;38.7228;-32.1470;6.6124;
5253042231330454;38.5520;-32.1714;6.8076;
5253042241330454;38.4788;-32.1470;6.8564;
5253042251330454;38.6252;-32.1104;6.6612;
5253042261330454;38.7960;-32.0616;6.4416;
5253042271330454;38.8326;-32.0128;6.3806;
5253042281330454;38.7594;-31.9640;6.4782;
5253042291330454;38.6252;-31.9884;6.6246;
5253042301330454;38.4666;-31.9396;6.7832;
5253042311330454;38.4544;-31.9152;6.8320;
5253042321330454;38.4544;-31.8908;6.7832;
5253042331330454;38.3812;-31.8176;6.7588;
5253042341330454;38.4422;-31.7932;6.6856;
5253042351330454;38.5642;-31.8176;6.4172;
5253042361330454;38.7960;-31.7810;6.1366;
5253042371330454;38.9424;-31.7200;5.9292;
5253042381330454;39.1864;-31.6712;5.6730;
5253042391330454;39.4792;-31.5858;5.3436;
5253042401330454;39.7232;-31.5370;5.0752;
5253042411330454;40.0526;-31.5370;4.8556;
5253042421330454;40.0526;-31.5004;5.0142;
5253042431330454;40.0648;-31.4150;5.1606;
5253042441330454;39.9428;-31.3906;5.3802;
5253042451330454;39.9184;-31.3418;5.4412;
5253042461330454;39.8818;-31.2808;5.5388;
5253042471330454;39.7720;-31.2808;5.6608;
5253042481330454;39.7110;-31.2076;5.8194;
5253042491330454;39.6012;-31.1588;5.9658;
5253042501330454;39.6988;-31.1100;5.7462;
5253042511330454;39.7232;-31.0368;5.7218;
5253042521330454;39.8330;-31.0124;5.5998;
5253042531330454;39.9428;-30.9636;5.4290;
5253042541330454;40.0526;-30.9880;5.3680;
5253042551330454;40.2112;-30.9514;5.1606;
5253042561330454;40.4430;-30.9270;4.8922;
5253042571330454;40.5406;-30.9026;4.8190;
5253042581330454;40.6382;-30.8416;4.7702;
5253042591330454;40.7114;-30.8904;4.6604;
5253042601330454;40.8456;-30.8660;4.4530;
5253042611330454;40.9066;-30.8660;4.4652;
5253042621330454;40.8822;-30.8782;4.5018;
5253042631330454;40.8212;-30.8660;4.6848;
5253042641330454;40.7480;-30.8904;4.8556;
5253042651330454;40.7846;-30.8416;4.8434;
5253042661330454;40.6992;-30.9026;4.8678;
5253042671330454;40.8090;-30.9148;4.7580;
5253042681330454;40.6748;-30.9392;4.9532;
5253042691330454;40.5040;-30.9514;5.0386;
5253042701330454;40.5406;-30.9514;4.9654;
5253042711330454;40.5162;-30.9514;4.8922;
5253042721330454;40.4064;-31.0002;4.9654;
5253042731330454;40.2478;-31.0490;5.0874;
5253042741330454;40.3698;-31.0368;5.0264;
5253042751330454;40.3210;-31.0124;5.0264;
5253042761330454;40.3576;-31.0368;4.9654;
5253042771330454;40.5650;-31.0490;4.7336;
5253042781330454;40.6626;-31.0368;4.5872;
5253042791330454;40.7846;-31.0612;4.4286;
5253042801330454;40.9798;-31.0612;4.1724;
5253042811330454;41.1506;-31.0856;3.9772;
5253042821330454;41.1872;-31.0978;3.8308;
5253042831330454;41.3092;-31.1222;3.6722;
5253042841330454;41.4434;-31.0612;3.5380;
5253042851330454;41.4922;-31.0734;3.4770;
5253042861330454;41.5654;-31.0734;3.3916;
5253042871330454;41.5166;-31.0856;3.3184;
5253042881330454;41.4190;-31.0734;3.3672;
5253042891330454;41.2116;-31.0856;3.5258;
5253042901330454;40.9310;-31.1100;3.7454;
5253042911330454;40.5650;-31.1710;4.1480;
5253042921330454;40.2234;-31.2198;4.5018;
5253042931330454;39.8086;-31.2442;4.9776;
5253042941330454;39.4792;-31.2686;5.3558;
5253042951330454;39.2230;-31.2686;5.7096;
5253042961330454;39.0278;-31.2808;6.0634;
5253042971330454;38.9180;-31.3174;6.1976;
5253042981330454;39.0034;-31.3052;6.1488;
5253042991330454;39.1498;-31.2564;6.0146;
5253043001330454;39.2352;-31.2198;5.9170;
5253043011330454;39.3328;-31.2076;5.7828;
5253043021330454;39.2108;-31.2198;5.8560;
5253043031330454;39.2108;-31.2686;5.7584;
5253043041330454;39.2230;-31.2686;5.6364;
5253043051330454;39.2962;-31.2320;5.5876;
5253043061330454;39.1742;-31.2564;5.6974;
5253043071330454;39.2108;-31.2564;5.6486;
5253043081330454;39.2108;-31.3052;5.5754;
5253043091330454;39.3328;-31.2808;5.4534;
5253043101330454;39.5158;-31.2320;5.3192;
5253043111330454;39.6256;-31.1588;5.3802;
5253043121330454;39.5158;-31.1466;5.5876;
5253043131330454;39.4060;-31.1344;5.7218;
5253043141330454;39.3694;-31.0856;5.7950;
5253043151330454;39.2474;-31.0978;5.8438;
5253043161330454;39.3084;-31.0734;5.8316;
5253043171330454;39.4060;-31.0368;5.6974;
5253043181330454;39.5402;-31.0490;5.3924;
5253043191330454;39.6622;-31.0368;5.1484;
5253043201330454;39.8696;-30.9880;4.8312;
5253043211330454;39.9550;-30.9636;4.4652;
